time (unix)	dt (s)	p (Pa)
1616490446.514	0.173	2737.150
1616490460.107	0.650	2712.591
1616490497.426	1.607	2684.518
1616490527.429	1.610	2684.717
1616490557.432	1.614	2678.005
1616490587.426	1.607	2672.288
1616490617.430	1.611	2667.543
1616490647.426	1.608	2665.667
1616490677.431	1.611	2698.113
1616490707.429	1.609	2915.768
1616490737.427	1.608	2951.705
1616490767.429	1.610	2961.002
1616490797.432	1.611	2964.503
1616490827.431	1.612	2965.130
1616490857.430	1.612	2964.777
1616490887.429	1.608	2963.043
1616490917.429	1.611	2960.390
1616490947.434	1.613	2957.848
1616490977.437	1.613	2954.305
1616491007.434	1.611	2951.185
1616491037.429	1.607	2947.727
1616491067.437	1.613	2944.095
1616491097.432	1.613	2940.312
1616491127.432	1.611	2935.520
1616491157.428	1.607	2930.915
1616491187.430	1.610	2927.620
1616491217.428	1.607	2922.723
1616491247.431	1.610	2917.997
1616491277.431	1.611	2912.668
1616491307.431	1.610	2908.350
1616491337.429	1.612	2903.828
1616491367.880	1.611	2899.908
1616491397.350	1.607	2895.840
1616491427.349	1.607	2890.303
1616491457.352	1.607	2885.558
1616491487.355	1.614	2880.370
1616491517.356	1.614	2874.615
1616491547.354	1.614	2868.877
1616491577.351	1.610	2862.348
1616491607.349	1.606	2857.030
1616491637.349	1.606	2852.110
1616491667.349	1.607	2846.263
1616491697.345	1.606	2840.333
1616491727.349	1.607	2834.925
1616491757.347	1.606	2829.478
1616491787.348	1.606	2824.072
1616491817.354	1.611	2817.722
1616491847.353	1.613	2812.083
1616491877.355	1.614	2805.880
1616491907.352	1.612	2800.378
1616491937.350	1.609	2794.833
1616491967.354	1.609	2788.208
1616491997.353	1.610	2781.953
1616492027.346	1.606	2775.632
1616492057.349	1.606	2770.170
1616492087.354	1.609	2763.935
1616492117.353	1.610	2758.105
1616492147.354	1.614	2752.582
1616492177.355	1.614	2746.222
1616492207.349	1.609	2739.900
1616492237.347	1.606	2733.033
1616492267.349	1.606	2726.773
1616492297.353	1.610	2720.658
1616492327.349	1.607	2714.140
1616492357.351	1.607	2707.850
1616492387.351	1.609	2701.797
1616492417.357	1.609	2695.795
1616492447.348	1.606	2689.185
1616492477.347	1.606	2682.760
1616492507.353	1.609	2677.330
1616492537.348	1.606	2670.812
1616492567.352	1.611	2664.647
1616492597.352	1.610	2658.197
1616492627.353	1.613	2651.357
1616492657.351	1.611	2645.637
1616492687.349	1.609	2639.705
1616492717.347	1.606	2633.303
1616492747.350	1.609	2626.988
1616492777.351	1.607	2619.770
1616492807.349	1.606	2613.855
1616492837.346	1.606	2607.222
1616492867.355	1.609	2600.832
1616492897.347	1.607	2594.893
1616492927.353	1.610	2588.468
1616492957.353	1.613	2581.810
1616492987.356	1.613	2575.007
1616493017.351	1.610	2568.792
1616493047.353	1.610	2562.500
1616493077.350	1.611	2555.797
1616493107.356	1.614	2550.813
1616493137.351	1.609	2544.850
1616493167.351	1.610	2538.177
1616493197.349	1.607	2531.530
1616493227.347	1.607	2524.557
1616493257.347	1.606	2517.820
1616493287.351	1.609	2511.333
1616493317.349	1.609	2505.170
1616493347.353	1.613	2499.580
1616493377.350	1.610	2493.260
1616493407.349	1.607	2486.237
1616493437.352	1.612	2479.393
1616493467.354	1.611	2472.535
1616493497.352	1.611	2466.430
1616493527.347	1.606	2460.440
1616493557.349	1.607	2454.115
1616493587.348	1.609	2447.730
1616493617.353	1.613	2441.103
1616493647.348	1.606	2434.212
1616493677.347	1.606	2427.967
1616493707.351	1.610	2421.510
1616493737.352	1.612	2415.470
1616493767.350	1.607	2409.528
1616493797.351	1.611	2403.292
1616493827.353	1.614	2396.822
1616493857.352	1.610	2389.840
1616493887.349	1.606	2383.297
1616493917.350	1.607	2376.490
1616493947.354	1.611	2370.267
1616493977.354	1.614	2364.508
1616494007.349	1.607	2358.277
1616494037.354	1.611	2351.463
1616494067.351	1.610	2345.158
1616494097.347	1.607	2338.230
1616494127.355	1.614	2331.697
1616494157.349	1.607	2325.247
1616494187.354	1.611	2319.703
1616494217.351	1.613	2313.415
1616494247.351	1.609	2306.315
1616494277.354	1.614	2299.992
1616494307.351	1.609	2293.017
1616494337.347	1.607	2286.667
1616494367.353	1.611	2280.280
1616494397.350	1.611	2274.063
1616494427.348	1.607	2267.895
1616494457.347	1.607	2261.552
1616494487.353	1.613	2255.137
1616494517.352	1.610	2248.485
1616494547.349	1.609	2241.375
1616494577.350	1.609	2234.857
1616494607.351	1.612	2229.042
1616494637.353	1.609	2222.872
1616494667.350	1.609	2216.460
1616494697.352	1.613	2209.723
1616494727.348	1.609	2203.357
1616494757.350	1.612	2196.658
1616494787.352	1.612	2190.045
1616494817.349	1.607	2183.677
1616494847.349	1.609	2177.640
1616494877.353	1.614	2171.365
1616494907.350	1.609	2164.555
1616494937.347	1.607	2157.895
1616494967.352	1.611	2151.772
1616494997.355	1.614	2144.837
1616495027.346	1.608	2138.328
1616495057.347	1.606	2132.437
1616495087.350	1.607	2126.782
1616495117.354	1.613	2119.897
1616495147.354	1.613	2113.108
1616495177.349	1.609	2106.365
1616495207.354	1.613	2099.527
1616495237.351	1.610	2093.127
1616495267.347	1.608	2086.513
1616495297.354	1.611	2080.675
1616495327.353	1.613	2074.175
1616495357.353	1.610	2067.330
1616495387.348	1.607	2061.423
1616495417.352	1.609	2054.502
1616495447.352	1.610	2047.978
1616495477.355	1.614	2041.703
1616495507.353	1.613	2035.578
1616495537.352	1.610	2029.320
1616495567.347	1.606	2022.518
1616495597.351	1.610	2015.852
1616495627.352	1.613	2009.672
1616495657.349	1.606	2002.977
1616495687.355	1.611	1996.595
1616495717.353	1.611	1989.992
1616495747.354	1.611	1983.410
1616495777.354	1.611	1977.025
1616495807.349	1.609	1970.568
1616495837.355	1.614	1964.582
1616495867.355	1.609	1957.393
1616495897.356	1.613	1950.737
1616495927.351	1.611	1944.623
1616495957.353	1.609	1938.632
1616495987.353	1.613	1932.150
1616496017.349	1.607	1925.808
1616496047.349	1.609	1918.847
1616496077.352	1.610	1912.912
1616496107.356	1.614	1906.412
1616496137.348	1.610	1899.493
1616496167.352	1.611	1892.883
1616496197.358	1.613	1886.328
1616496227.349	1.607	1880.195
1616496257.353	1.613	1873.322
1616496287.352	1.613	1866.680
1616496317.348	1.608	1860.342
1616496347.357	1.613	1853.778
1616496377.349	1.609	1847.170
1616496407.355	1.610	1840.728
1616496437.354	1.613	1834.148
1616496467.353	1.610	1828.352
1616496497.346	1.606	1821.518
1616496527.352	1.610	1814.390
1616496557.354	1.610	1807.975
1616496587.357	1.613	1801.705
1616496617.349	1.609	1795.028
1616496647.352	1.612	1788.495
1616496677.353	1.611	1781.973
1616496707.349	1.610	1776.198
1616496737.353	1.610	1769.752
1616496767.354	1.610	1762.342
1616496797.347	1.607	1755.705
1616496827.356	1.612	1749.263
1616496857.354	1.609	1742.937
1616496887.354	1.614	1736.742
1616496917.351	1.610	1730.497
1616496947.351	1.609	1724.403
1616496977.355	1.614	1717.723
1616497007.355	1.611	1710.270
1616497037.353	1.612	1703.382
1616497067.349	1.610	1697.200
1616497097.350	1.609	1690.562
1616497127.352	1.611	1684.358
1616497157.351	1.610	1678.305
1616497187.352	1.610	1671.505
1616497217.351	1.609	1665.382
1616497247.350	1.612	1658.738
1616497277.358	1.614	1651.895
1616497307.351	1.611	1645.488
1616497337.354	1.611	1638.745
1616497367.348	1.609	1632.865
1616497397.352	1.610	1626.225
1616497427.353	1.610	1619.655
1616497457.352	1.611	1612.990
1616497487.350	1.609	1606.343
1616497517.355	1.614	1599.600
1616497547.352	1.610	1593.143
1616497577.351	1.610	1586.902
1616497607.352	1.613	1580.903
1616497637.352	1.610	1574.377
1616497667.357	1.614	1567.673
1616497697.353	1.610	1561.147
1616497727.355	1.614	1554.165
1616497757.352	1.611	1547.488
1616497787.351	1.610	1540.892
1616497817.351	1.611	1534.760
1616497847.350	1.610	1529.027
1616497877.352	1.610	1521.938
1616497907.351	1.610	1514.945
1616497937.352	1.610	1508.480
1616497967.356	1.610	1502.073
1616497997.352	1.611	1495.647
1616498027.355	1.612	1488.665
1616498057.351	1.610	1482.028
1616498087.353	1.612	1475.933
1616498117.355	1.610	1469.552
1616498147.352	1.610	1462.690
1616498177.352	1.610	1456.327
1616498207.350	1.609	1449.792
1616498237.352	1.610	1443.148
1616498267.351	1.610	1436.308
1616498297.353	1.613	1429.837
1616498327.353	1.611	1424.300
1616498357.354	1.613	1417.910
1616498387.349	1.607	1411.113
1616498417.355	1.611	1404.100
1616498447.351	1.609	1396.970
1616498477.355	1.614	1390.663
1616498507.351	1.609	1384.258
1616498537.351	1.609	1377.888
1616498567.353	1.612	1372.120
1616498597.354	1.613	1365.113
1616498627.350	1.610	1358.557
1616498657.354	1.613	1351.748
1616498687.353	1.610	1344.982
1616498717.349	1.607	1338.630
1616498747.353	1.613	1332.110
1616498777.348	1.607	1325.778
1616498807.356	1.613	1319.743
1616498837.350	1.610	1313.270
1616498867.356	1.610	1306.810
1616498897.349	1.609	1300.350
1616498927.352	1.613	1293.802
1616498957.355	1.611	1287.102
1616498987.349	1.610	1280.437
1616499017.351	1.612	1273.445
1616499047.353	1.611	1266.835
1616499077.357	1.614	1260.803
1616499107.355	1.614	1254.413
1616499137.350	1.610	1248.065
1616499167.352	1.611	1241.222
1616499197.351	1.607	1234.683
1616499227.351	1.611	1228.093
1616499257.354	1.610	1221.583
1616499287.350	1.610	1215.113
1616499317.355	1.614	1208.458
1616499347.352	1.610	1202.018
1616499377.349	1.610	1195.633
1616499407.351	1.609	1188.805
1616499437.350	1.609	1182.057
1616499467.352	1.611	1175.755
1616499497.353	1.612	1169.328
1616499527.351	1.610	1162.917
1616499557.355	1.613	1156.257
1616499587.351	1.612	1149.763
1616499617.355	1.611	1143.327
1616499647.353	1.613	1136.750
1616499677.354	1.611	1130.247
1616499707.349	1.609	1123.772
1616499737.354	1.610	1117.125
1616499767.351	1.609	1110.715
1616499797.353	1.612	1103.553
1616499827.351	1.613	1097.508
1616499857.349	1.609	1090.895
1616499887.353	1.613	1084.142
1616499917.349	1.609	1077.495
1616499947.368	1.609	1070.845
1616499977.353	1.613	1064.553
1616500007.355	1.610	1057.673
1616500037.349	1.609	1050.743
1616500067.347	1.606	1044.118
1616500097.352	1.609	1037.840
1616500127.352	1.610	1031.370
1616500157.349	1.607	1024.907
1616500187.357	1.611	1018.168
1616500217.354	1.614	1011.572
1616500247.354	1.612	1005.587
1616500277.354	1.612	998.680
1616500307.350	1.609	991.832
1616500337.355	1.611	985.137
1616500367.353	1.610	978.145
1616500397.348	1.607	972.307
1616500427.353	1.611	966.085
1616500457.349	1.607	959.542
1616500487.354	1.613	952.847
1616500517.351	1.609	946.667
1616500547.351	1.612	940.600
1616500577.347	1.606	935.140
1616500607.350	1.610	929.640
1616500637.354	1.611	924.500
1616500667.356	1.612	919.123
1616500697.349	1.607	914.502
1616500727.349	1.609	909.402
1616500757.350	1.610	904.273
1616500787.350	1.610	899.490
1616500817.350	1.611	894.853
1616500847.350	1.610	891.330
1616500877.352	1.610	887.563
1616500907.354	1.613	883.952
1616500937.353	1.610	880.347
1616500967.351	1.609	876.663
1616500997.352	1.611	873.462
1616501027.355	1.612	870.548
1616501057.351	1.610	867.898
1616501087.354	1.612	864.807
1616501117.352	1.610	862.457
1616501147.353	1.610	859.760
1616501177.354	1.611	857.430
1616501207.349	1.609	854.907
1616501237.352	1.610	852.882
1616501267.351	1.609	851.142
1616501297.352	1.610	848.860
1616501327.354	1.610	846.985
1616501357.351	1.613	845.202
1616501387.352	1.609	843.557
1616501417.351	1.609	841.643
1616501447.355	1.613	840.177
1616501477.348	1.609	838.388
1616501507.350	1.611	837.072
1616501537.351	1.610	835.540
1616501567.353	1.612	834.177
1616501597.355	1.613	832.758
1616501627.352	1.612	831.608
1616501657.348	1.609	830.403
1616501687.354	1.614	829.228
1616501717.352	1.610	828.188
1616501747.350	1.610	827.317
1616501777.352	1.610	826.360
1616501807.352	1.612	825.387
1616501837.352	1.610	824.602
1616501867.352	1.610	823.953
1616501897.349	1.609	823.107
1616501927.351	1.610	822.315
1616501957.351	1.610	821.548
1616501987.353	1.611	820.973
1616502017.352	1.610	820.537
1616502047.350	1.610	820.040
1616502077.348	1.610	819.250
1616502107.353	1.614	818.870
1616502137.352	1.608	818.223
1616502167.353	1.610	817.747
1616502197.353	1.610	817.132
1616502227.351	1.610	816.780
1616502257.351	1.613	816.490
1616502287.346	1.606	816.105
1616502317.356	1.611	815.842
1616502347.356	1.612	815.687
1616502377.351	1.609	815.047
1616502407.352	1.613	814.632
1616502437.353	1.609	814.280
1616502467.348	1.607	813.962
1616502497.351	1.610	813.647
1616502527.353	1.612	813.413
1616502557.349	1.610	813.072
1616502587.353	1.613	812.572
1616502617.354	1.609	812.262
1616502647.352	1.610	812.013
1616502677.352	1.612	811.838
1616502707.349	1.610	811.627
1616502737.348	1.607	811.595
1616502767.350	1.612	811.397
1616502797.355	1.612	811.230
1616502827.355	1.610	811.128
1616502857.350	1.609	811.002
1616502887.349	1.609	810.942
1616502917.357	1.613	810.808
1616502947.355	1.610	810.787
1616502977.351	1.609	810.752
1616503007.352	1.610	810.640
1616503037.352	1.612	810.472
1616503067.351	1.610	810.433
1616503097.353	1.613	810.387
1616503127.351	1.609	810.203
1616503157.352	1.611	810.085
1616503187.351	1.610	810.013
1616503217.357	1.613	809.888
1616503247.350	1.610	809.692
1616503277.355	1.613	809.643
1616503307.351	1.606	809.555
1616503337.350	1.611	809.592
1616503367.351	1.610	809.488
1616503397.350	1.610	809.378
1616503427.356	1.614	809.337
1616503457.353	1.611	809.317
1616503487.348	1.607	809.338
1616503517.352	1.611	809.337
1616503547.349	1.607	809.187
1616503577.352	1.610	809.092
1616503607.355	1.610	808.912
1616503637.350	1.609	809.000
1616503667.349	1.610	808.967
1616503697.351	1.609	808.915
1616503727.354	1.613	808.818
1616503757.351	1.613	808.818
1616503787.351	1.609	808.790
1616503817.350	1.610	808.792
1616503847.351	1.609	808.775
1616503877.351	1.610	808.760
1616503907.351	1.610	808.807
1616503937.347	1.609	808.788
1616503967.354	1.609	808.807
1616503997.355	1.613	808.798
1616504027.348	1.610	808.767
1616504057.354	1.611	808.818
1616504087.352	1.610	808.805
1616504117.352	1.612	808.905
1616504147.353	1.610	809.303
1616504177.353	1.610	809.788
1616504207.355	1.613	810.538
1616504237.351	1.610	811.125
1616504267.351	1.610	812.105
1616504297.353	1.610	813.405
1616504327.349	1.609	815.097
1616504357.353	1.613	816.798
1616504387.354	1.610	818.643
1616504417.347	1.609	820.537
1616504447.350	1.612	822.578
1616504477.349	1.612	824.893
1616504507.350	1.611	827.588
1616504537.355	1.611	830.195
1616504567.352	1.610	833.185
1616504597.351	1.613	836.472
1616504627.350	1.611	839.697
1616504657.349	1.610	843.233
1616504687.353	1.612	846.633
1616504717.351	1.610	850.187
1616504747.354	1.613	853.498
1616504777.351	1.610	857.125
1616504807.351	1.610	861.157
1616504837.348	1.610	865.112
1616504867.349	1.610	869.377
1616504897.355	1.611	873.402
1616504927.353	1.612	877.750
1616504957.353	1.611	882.528
1616504987.352	1.610	887.052
1616505017.351	1.609	891.885
1616505047.352	1.611	896.223
1616505077.351	1.610	901.512
1616505107.351	1.610	906.817
1616505137.349	1.609	912.315
1616505167.354	1.613	917.080
1616505197.353	1.612	922.240
1616505227.350	1.609	927.197
1616505257.355	1.611	932.723
1616505287.350	1.610	937.550
1616505317.351	1.609	942.813
1616505347.351	1.609	948.310
1616505377.351	1.610	953.963
1616505407.349	1.607	959.570
1616505437.350	1.610	965.415
1616505467.349	1.609	970.427
1616505497.354	1.612	975.570
1616505527.351	1.610	981.003
1616505557.353	1.612	986.890
1616505587.349	1.609	992.580
1616505617.352	1.613	998.482
1616505647.348	1.606	1004.635
1616505677.350	1.610	1010.183
1616505707.347	1.607	1015.998
1616505737.351	1.611	1021.922
1616505767.351	1.610	1027.838
1616505797.352	1.610	1033.575
1616505827.355	1.611	1039.387
1616505857.356	1.610	1045.157
1616505887.350	1.610	1050.912
1616505917.355	1.612	1057.068
1616505947.345	1.606	1063.028
1616505977.349	1.609	1069.223
1616506007.352	1.611	1075.258
1616506037.350	1.609	1081.473
1616506067.352	1.610	1087.758
1616506097.352	1.613	1093.898
1616506127.350	1.609	1100.042
1616506157.352	1.610	1105.932
1616506187.354	1.611	1112.265
1616506217.354	1.611	1118.130
1616506247.355	1.613	1124.165
1616506277.350	1.609	1130.222
1616506307.351	1.609	1136.472
1616506337.353	1.613	1142.957
1616506367.349	1.610	1149.063
1616506397.348	1.606	1154.895
1616506427.351	1.609	1161.130
1616506457.347	1.607	1167.252
1616506487.354	1.611	1173.852
1616506517.351	1.610	1179.705
1616506547.350	1.610	1185.982
1616506577.354	1.611	1192.478
1616506607.354	1.610	1198.762
1616506637.351	1.610	1205.330
1616506667.351	1.611	1211.612
1616506697.352	1.609	1217.722
1616506727.351	1.610	1224.172
1616506757.354	1.611	1230.258
1616506787.352	1.610	1236.653
1616506817.354	1.613	1242.762
1616506847.353	1.607	1249.220
1616506877.352	1.610	1255.578
1616506907.352	1.612	1261.985
1616506937.352	1.610	1268.417
1616506967.352	1.612	1274.930
1616506997.356	1.613	1281.275
1616507027.353	1.610	1287.648
1616507057.354	1.610	1294.045
1616507087.353	1.612	1300.547
1616507117.353	1.610	1306.987
1616507147.354	1.613	1313.525
1616507177.353	1.609	1320.090
1616507207.357	1.612	1326.103
1616507237.348	1.607	1332.387
1616507267.352	1.611	1338.917
1616507297.354	1.611	1345.263
1616507327.351	1.610	1351.890
1616507357.350	1.609	1358.245
1616507387.351	1.609	1364.548
1616507417.351	1.610	1371.305
1616507447.348	1.607	1377.483
1616507477.353	1.610	1384.053
1616507507.349	1.609	1390.383
1616507537.354	1.613	1396.752
1616507567.349	1.607	1403.397
1616507597.351	1.612	1409.873
1616507627.350	1.609	1416.450
1616507657.352	1.612	1423.112
1616507687.357	1.613	1429.373
1616507717.352	1.610	1435.680
1616507747.350	1.612	1442.220
1616507777.350	1.610	1448.595
1616507807.350	1.610	1454.952
1616507837.355	1.612	1461.158
1616507867.351	1.610	1467.958
1616507897.350	1.610	1474.157
1616507927.348	1.607	1480.510
1616507957.355	1.613	1487.095
1616507987.355	1.613	1493.802
1616508017.352	1.611	1500.337
1616508047.351	1.610	1506.865
1616508077.354	1.612	1513.078
1616508107.349	1.609	1519.620
1616508137.351	1.610	1525.938
1616508167.352	1.612	1532.605
1616508197.350	1.607	1539.022
1616508227.356	1.614	1545.598
1616508257.351	1.610	1552.287
1616508287.354	1.612	1558.627
1616508317.347	1.609	1564.995
1616508347.352	1.610	1571.680
1616508377.350	1.610	1578.183
1616508407.359	1.613	1584.563
1616508437.355	1.611	1591.127
1616508467.351	1.613	1597.328
1616508497.350	1.609	1603.803
1616508527.352	1.611	1610.433
1616508557.347	1.609	1616.905
1616508587.351	1.611	1623.442
1616508617.352	1.610	1629.850
1616508647.355	1.613	1636.350
1616508677.352	1.612	1642.928
1616508707.354	1.614	1649.383
1616508737.346	1.607	1656.137
1616508767.355	1.613	1662.790
1616508797.349	1.608	1668.957
1616508827.346	1.608	1675.665
1616508857.351	1.610	1682.280
1616508887.355	1.613	1688.608
1616508917.353	1.611	1695.155
1616508947.354	1.613	1701.478
1616508977.347	1.609	1708.110
1616509007.355	1.611	1714.875
1616509037.350	1.606	1721.480
1616509067.352	1.613	1728.077
1616509097.350	1.610	1734.475
1616509127.353	1.612	1740.953
1616509157.352	1.611	1747.247
1616509187.349	1.609	1753.732
1616509217.353	1.613	1760.113
1616509247.350	1.610	1766.568
1616509277.352	1.610	1773.355
1616509307.349	1.610	1779.895
1616509337.351	1.609	1786.410
1616509367.349	1.609	1792.672
1616509397.354	1.613	1799.080
1616509427.347	1.607	1805.773
1616509457.354	1.613	1812.285
1616509487.352	1.610	1818.750
1616509517.349	1.609	1825.458
1616509547.354	1.612	1831.892
1616509577.354	1.610	1838.355
1616509607.352	1.611	1844.798
1616509637.349	1.609	1851.375
1616509667.352	1.611	1857.857
1616509697.354	1.612	1864.542
1616509727.352	1.610	1870.868
1616509757.352	1.612	1877.402
1616509787.350	1.609	1884.088
1616509817.348	1.609	1890.508
1616509847.350	1.609	1897.058
1616509877.353	1.612	1903.678
1616509907.357	1.614	1909.775
1616509937.346	1.608	1916.350
1616509967.354	1.610	1922.843
1616509997.355	1.613	1929.342
1616510027.353	1.610	1936.377
1616510057.350	1.609	1942.592
1616510087.352	1.611	1948.695
1616510117.348	1.607	1955.298
1616510147.354	1.613	1962.205
1616510177.355	1.614	1968.758
1616510207.352	1.613	1974.715
1616510237.347	1.606	1981.422
1616510267.354	1.611	1988.130
1616510297.347	1.609	1994.627
1616510327.355	1.611	2001.350
1616510357.349	1.609	2007.838
1616510387.351	1.611	2014.030
1616510417.352	1.610	2020.760
1616510447.354	1.613	2027.102
1616510477.354	1.610	2033.317
1616510507.355	1.614	2039.905
1616510537.349	1.609	2046.480
1616510567.351	1.613	2053.182
1616510597.351	1.610	2059.782
1616510627.348	1.609	2065.622
1616510657.347	1.609	2072.375
1616510687.355	1.614	2078.753
1616510717.347	1.609	2085.150
1616510747.352	1.612	2092.063
1616510777.353	1.611	2098.588
1616510807.350	1.609	2105.125
1616510837.351	1.613	2111.765
1616510867.348	1.609	2117.835
1616510897.346	1.607	2124.653
1616510927.348	1.608	2130.887
1616510957.351	1.612	2137.470
1616510987.347	1.608	2144.128
1616511017.351	1.612	2150.662
1616511047.355	1.611	2157.122
1616511077.352	1.610	2163.298
1616511107.355	1.614	2170.178
1616511137.347	1.606	2176.832
1616511167.348	1.610	2183.255
1616511197.352	1.610	2189.877
1616511227.350	1.613	2196.518
1616511257.352	1.613	2202.682
1616511287.349	1.609	2209.288
1616511317.348	1.607	2215.817
1616511347.353	1.611	2222.072
1616511377.352	1.609	2228.502
1616511407.354	1.611	2234.878
1616511437.353	1.610	2241.257
1616511467.352	1.611	2247.975
1616511497.351	1.612	2254.622
1616511527.350	1.610	2260.938
1616511557.351	1.609	2267.368
1616511587.352	1.611	2273.822
1616511617.349	1.607	2280.588
1616511647.352	1.611	2287.130
1616511677.346	1.609	2293.302
1616511707.352	1.613	2300.152
1616511737.351	1.609	2306.442
1616511767.348	1.610	2312.887
1616511797.357	1.613	2319.585
1616511827.354	1.610	2325.635
1616511857.351	1.610	2332.515
1616511887.349	1.610	2338.817
1616511917.353	1.613	2345.417
1616511947.350	1.609	2351.643
1616511977.352	1.612	2358.145
1616512007.354	1.609	2364.790
1616512037.354	1.611	2370.730
1616512067.349	1.607	2377.317
1616512097.354	1.614	2384.025
1616512127.353	1.610	2389.967
1616512157.353	1.610	2396.567
1616512187.349	1.607	2403.067
1616512217.352	1.611	2409.483
1616512247.352	1.611	2415.662
1616512277.351	1.610	2422.202
1616512307.354	1.611	2428.737
1616512337.353	1.611	2434.957
1616512367.347	1.607	2441.870
1616512397.353	1.612	2448.172
1616512427.350	1.611	2454.848
1616512457.354	1.612	2461.322
1616512487.355	1.613	2467.952
1616512517.351	1.609	2474.637
1616512547.349	1.612	2481.278
1616512577.350	1.609	2487.560
1616512607.351	1.612	2493.775
1616512637.349	1.608	2500.377
1616512667.350	1.608	2506.475
1616512697.350	1.611	2513.290
1616512727.350	1.609	2519.993
1616512757.351	1.609	2526.028
1616512787.353	1.612	2532.577
1616512817.351	1.610	2539.445
1616512847.351	1.607	2545.653
1616512877.348	1.609	2552.123
1616512907.353	1.613	2558.232
1616512937.349	1.609	2564.982
1616512967.354	1.610	2571.303
1616512997.352	1.609	2577.663
1616513027.351	1.610	2584.032
1616513057.350	1.610	2590.430
1616513087.347	1.606	2596.865
1616513117.350	1.609	2604.127
1616513147.347	1.609	2609.983
1616513177.354	1.611	2616.525
1616513207.354	1.611	2622.758
1616513237.352	1.610	2629.003
1616513267.352	1.609	2635.103
1616513297.352	1.613	2641.972
1616513327.352	1.609	2648.675
1616513357.352	1.609	2655.330
1616513387.348	1.609	2661.670
1616513417.351	1.611	2668.305
1616513447.354	1.613	2674.818
1616513477.347	1.609	2681.355
1616513507.355	1.612	2688.038
1616513537.352	1.610	2693.687
1616513567.353	1.613	2700.488
1616513597.352	1.610	2706.722
1616513627.354	1.611	2713.262
1616513657.350	1.612	2719.540
1616513687.355	1.610	2725.602
1616513717.353	1.610	2732.338
1616513747.350	1.609	2738.607
1616513777.352	1.610	2744.973
1616513807.351	1.610	2751.918
1616513837.351	1.610	2757.348
1616513867.355	1.614	2764.378
1616513897.357	1.611	2771.190
1616513927.354	1.611	2778.015
1616513957.354	1.611	2783.743
1616513987.350	1.609	2790.167
1616514017.348	1.607	2796.897
1616514047.349	1.611	2803.265
1616514077.350	1.609	2809.735
1616514107.346	1.607	2816.508
1616514137.351	1.610	2821.827
1616514167.352	1.611	2827.878
1616514197.354	1.611	2835.173
1616514227.351	1.609	2840.895
1616514257.353	1.610	2847.017
1616514287.352	1.609	2853.357
1616514317.353	1.610	2859.533
1616514347.352	1.612	2864.965
1616514377.350	1.610	2871.132
1616514407.352	1.610	2876.603
1616514437.349	1.607	2881.335
1616514467.354	1.610	2886.362
1616514497.353	1.609	2891.787
1616514527.353	1.611	2897.113
1616514557.348	1.607	2901.338
1616514587.352	1.610	2905.028
1616514617.354	1.612	2908.728
1616514647.347	1.607	2912.033
1616514677.355	1.610	2916.818
1616514707.353	1.611	2920.695
1616514737.353	1.613	2924.515
1616514767.352	1.607	2928.762
1616514797.353	1.613	2931.943
1616514827.352	1.610	2934.745
1616514857.351	1.609	2938.023
1616514887.351	1.609	2941.550
1616514917.355	1.613	2943.502
1616514947.354	1.613	2944.475
1616514977.353	1.609	2947.645
1616515007.354	1.613	2951.008
1616515037.351	1.610	2952.973
1616515067.350	1.610	2955.070
1616515097.349	1.609	2956.750
1616515127.355	1.613	2959.110
1616515157.352	1.610	2960.717
1616515187.351	1.610	2962.645
1616515217.353	1.611	2963.997
1616515247.348	1.606	2966.128
1616515277.353	1.613	2968.323
1616515307.347	1.608	2969.203
1616515337.353	1.613	2971.427
1616515367.348	1.608	2973.107
1616515397.354	1.612	2973.788
1616515427.351	1.609	2975.205
1616515457.351	1.613	2975.672
1616515487.349	1.607	2976.295
1616515517.353	1.613	2978.852
1616515547.351	1.610	2979.645
1616515577.352	1.613	2980.067
1616515607.351	1.609	2980.758
1616515637.357	1.611	2981.405
1616515667.354	1.610	2982.472
1616515697.348	1.609	2984.103
1616515727.353	1.611	2985.077
1616515757.354	1.611	2985.498
1616515787.350	1.610	2985.698
1616515817.352	1.612	2987.062
1616515847.352	1.609	2987.718
1616515877.347	1.609	2987.918
1616515907.353	1.612	2988.268
1616515937.352	1.612	2989.317
1616515967.351	1.610	2990.277
1616515997.349	1.612	2991.135
1616516027.353	1.610	2991.502
1616516057.353	1.611	2992.502
1616516087.351	1.609	2993.550
1616516117.352	1.610	2994.648
1616516147.349	1.610	2994.647
1616516177.352	1.613	2994.053
1616516207.348	1.609	2994.548
1616516237.354	1.613	2995.628
1616516267.352	1.610	2996.280
1616516297.356	1.613	2996.888
1616516327.354	1.610	2996.978
1616516357.349	1.609	2997.385
1616516387.356	1.614	2998.013
1616516417.352	1.610	2997.530
1616516447.352	1.610	2998.838
1616516477.350	1.611	2998.520
1616516507.354	1.612	2997.860
1616516537.347	1.607	2999.475
1616516567.354	1.611	2999.637
1616516597.350	1.610	2998.977
1616516627.357	1.614	3000.252
1616516657.350	1.609	2998.075
1616516687.353	1.610	3000.247
1616516717.353	1.611	3000.615
1616516747.345	1.606	3000.032
1616516777.353	1.613	2999.645
1616516807.352	1.609	3000.477
1616516837.355	1.612	3001.743
1616516867.351	1.612	3002.185
1616516897.346	1.606	3001.627
1616516927.354	1.610	3001.590
1616516957.350	1.609	3002.120
1616516987.351	1.612	3002.525
1616517017.350	1.610	3001.885
1616517047.350	1.607	3001.923
1616517077.350	1.610	3001.697
1616517107.354	1.613	3002.575
1616517137.348	1.607	3003.048
1616517167.352	1.610	3002.928
1616517197.350	1.610	3002.708
1616517227.352	1.609	3002.685
1616517257.352	1.613	3002.968
1616517287.352	1.612	3002.945
1616517317.352	1.609	3003.020
1616517347.349	1.610	3003.330
1616517377.347	1.609	3003.528
1616517407.355	1.613	3003.712
1616517437.353	1.610	3003.630
1616517467.350	1.607	3003.280
1616517497.351	1.611	3003.470
1616517527.350	1.611	3003.625
1616517557.350	1.609	3003.900
1616517587.351	1.611	3003.295
1616517617.351	1.607	3003.520
1616517647.347	1.610	3003.572
1616517677.352	1.613	3004.155
1616517707.351	1.611	3003.982
1616517737.349	1.608	3003.465
1616517767.351	1.611	3004.282
1616517797.350	1.610	3004.607
1616517827.351	1.610	3004.560
1616517857.356	1.612	3004.212
1616517887.353	1.613	3004.413
1616517917.354	1.609	3003.852
1616517947.352	1.610	3003.705
1616517977.351	1.610	3003.303
1616518007.349	1.608	3001.978
1616518037.351	1.612	3000.597
1616518067.351	1.610	2998.777
1616518097.348	1.606	2997.048
1616518127.349	1.609	2995.450
1616518157.347	1.608	2994.405
1616518187.351	1.612	2992.812
1616518217.347	1.606	2991.668
1616518247.354	1.614	2989.972
1616518277.349	1.610	2987.477
1616518307.350	1.612	2984.808
1616518337.349	1.609	2981.488
1616518367.351	1.610	2979.453
1616518397.350	1.609	2976.837
1616518427.352	1.612	2973.865
1616518457.351	1.612	2970.037
1616518487.348	1.610	2968.373
1616518517.349	1.608	2964.480
1616518547.352	1.613	2960.942
1616518577.348	1.608	2958.602
1616518607.352	1.609	2954.512
1616518637.350	1.610	2950.200
1616518667.347	1.610	2945.175
1616518697.351	1.610	2940.880
1616518727.345	1.606	2936.820
1616518757.351	1.612	2932.335
1616518787.350	1.609	2927.965
1616518817.352	1.611	2922.950
1616518847.347	1.608	2918.480
1616518877.351	1.613	2913.822
1616518907.351	1.609	2907.830
1616518937.352	1.610	2902.403
1616518967.346	1.609	2898.058
1616518997.348	1.609	2892.930
1616519027.355	1.613	2887.972
1616519057.350	1.609	2881.985
1616519087.350	1.609	2877.493
1616519117.354	1.612	2872.185
1616519147.349	1.609	2866.092
1616519177.349	1.610	2860.465
1616519207.351	1.610	2855.555
1616519237.347	1.607	2849.758
1616519267.351	1.613	2844.565
1616519297.355	1.611	2838.555
1616519327.356	1.613	2832.922
1616519357.351	1.612	2827.005
1616519387.347	1.609	2821.483
1616519417.350	1.610	2815.657
1616519447.349	1.608	2810.328
1616519477.351	1.612	2803.675
1616519507.349	1.608	2797.233
1616519537.351	1.610	2791.303
1616519567.350	1.609	2785.045
1616519597.347	1.608	2779.483
1616519627.349	1.607	2774.017
1616519657.349	1.610	2767.295
1616519687.351	1.609	2761.022
1616519717.353	1.612	2755.580
1616519747.347	1.607	2750.135
1616519777.352	1.610	2744.318
1616519807.349	1.608	2737.178
1616519837.353	1.613	2730.873
1616519867.349	1.609	2724.615
1616519897.354	1.612	2718.917
1616519927.348	1.611	2712.515
1616519957.349	1.609	2707.568
1616519987.351	1.610	2701.272
1616520017.349	1.606	2694.537
1616520047.352	1.612	2688.072
1616520077.348	1.607	2681.697
1616520107.351	1.612	2676.080
1616520137.351	1.608	2668.797
1616520167.351	1.609	2662.305
1616520197.351	1.612	2656.405
1616520227.350	1.612	2650.332
1616520257.349	1.608	2644.227
1616520287.351	1.613	2638.007
1616520317.349	1.609	2631.113
1616520347.348	1.611	2625.185
1616520377.352	1.609	2618.568
1616520407.350	1.610	2612.543
1616520437.346	1.607	2606.208
1616520467.354	1.613	2599.740
1616520497.354	1.611	2593.475
1616520527.351	1.613	2587.128
1616520557.352	1.609	2580.740
1616520587.355	1.610	2574.243
1616520617.352	1.611	2567.363
1616520647.349	1.609	2560.827
1616520677.349	1.610	2554.665
1616520707.349	1.609	2548.617
1616520737.350	1.610	2542.482
1616520767.350	1.607	2535.982
1616520797.349	1.610	2529.258
1616520827.350	1.609	2523.098
1616520857.354	1.610	2516.893
1616520887.354	1.610	2510.892
1616520917.348	1.609	2504.238
1616520947.354	1.613	2498.207
1616520977.351	1.612	2491.588
1616521007.349	1.611	2485.020
1616521037.349	1.607	2478.293
1616521067.352	1.610	2472.070
1616521097.350	1.609	2465.993
1616521127.352	1.610	2459.755
1616521157.350	1.610	2452.673
1616521187.349	1.607	2446.828
1616521217.352	1.612	2440.658
1616521247.352	1.610	2433.312
1616521277.354	1.612	2427.565
1616521307.350	1.610	2420.997
1616521337.353	1.614	2414.393
1616521367.351	1.609	2408.905
1616521397.350	1.610	2402.757
1616521427.351	1.611	2396.133
1616521457.351	1.610	2389.085
1616521487.349	1.609	2383.078
1616521517.351	1.609	2376.553
1616521547.350	1.607	2370.185
1616521577.352	1.612	2363.728
1616521607.348	1.610	2357.188
1616521637.352	1.609	2350.527
1616521667.347	1.609	2344.500
1616521697.353	1.612	2338.133
1616521727.350	1.610	2331.625
1616521757.349	1.609	2324.787
1616521787.351	1.611	2318.668
1616521817.350	1.607	2311.733
1616521847.351	1.612	2305.165
1616521877.351	1.609	2298.630
1616521907.350	1.613	2292.338
1616521937.349	1.609	2285.962
1616521967.349	1.610	2279.123
1616521997.351	1.609	2272.555
1616522027.350	1.609	2266.145
1616522057.349	1.608	2260.068
1616522087.348	1.608	2253.737
1616522117.352	1.613	2247.062
1616522147.352	1.610	2240.222
1616522177.352	1.610	2233.828
1616522207.353	1.613	2227.443
1616522237.348	1.608	2221.450
1616522267.352	1.611	2215.145
1616522297.352	1.609	2208.798
1616522327.350	1.608	2201.917
1616522357.351	1.612	2195.575
1616522387.352	1.609	2188.948
1616522417.348	1.609	2182.950
1616522447.352	1.611	2176.717
1616522477.348	1.610	2170.188
1616522507.347	1.607	2163.525
1616522537.354	1.614	2157.175
1616522567.349	1.607	2150.762
1616522597.354	1.612	2144.308
1616522627.352	1.613	2137.960
1616522657.351	1.612	2131.615
1616522687.350	1.609	2125.097
1616522717.349	1.607	2118.250
1616522747.351	1.613	2112.375
1616522777.349	1.609	2105.857
1616522807.351	1.613	2099.112
1616522837.351	1.608	2092.168
1616522867.353	1.612	2085.415
1616522897.351	1.613	2079.090
1616522927.349	1.608	2073.045
1616522957.350	1.612	2066.607
1616522987.351	1.610	2060.893
1616523017.348	1.610	2054.283
1616523047.349	1.611	2047.818
1616523077.349	1.608	2041.068
1616523107.350	1.612	2034.388
1616523137.346	1.608	2028.088
1616523167.354	1.613	2021.942
1616523197.352	1.611	2015.553
1616523227.351	1.611	2009.127
1616523257.350	1.610	2002.540
1616523287.350	1.611	1995.897
1616523317.349	1.609	1989.360
1616523347.350	1.609	1982.485
1616523377.352	1.613	1976.053
1616523407.349	1.608	1969.793
1616523437.349	1.609	1963.372
1616523467.356	1.613	1956.325
1616523497.350	1.610	1949.788
1616523527.351	1.609	1943.612
1616523557.348	1.608	1937.392
1616523587.350	1.612	1930.622
1616523617.353	1.609	1923.888
1616523647.355	1.613	1917.037
1616523677.349	1.609	1910.723
1616523707.346	1.609	1904.835
1616523737.347	1.606	1898.513
1616523767.352	1.610	1891.728
1616523797.347	1.610	1885.193
1616523827.351	1.609	1878.313
1616523857.353	1.614	1871.758
1616523887.349	1.609	1865.618
1616523917.350	1.609	1858.900
1616523947.351	1.610	1852.270
1616523977.352	1.610	1845.983
1616524007.354	1.612	1839.413
1616524037.355	1.611	1832.783
1616524067.351	1.609	1826.742
1616524097.354	1.609	1819.473
1616524127.351	1.610	1813.237
1616524157.350	1.610	1806.870
1616524187.352	1.612	1800.082
1616524217.349	1.609	1793.713
1616524247.352	1.610	1787.247
1616524277.349	1.607	1780.747
1616524307.347	1.608	1774.457
1616524337.352	1.613	1767.840
1616524367.352	1.610	1761.177
1616524397.349	1.609	1754.593
1616524427.348	1.609	1748.213
1616524457.349	1.612	1741.740
1616524487.345	1.608	1735.150
1616524517.350	1.611	1728.653
1616524547.351	1.612	1722.145
1616524577.351	1.611	1715.477
1616524607.350	1.612	1708.535
1616524637.349	1.610	1702.022
1616524667.349	1.609	1695.878
1616524697.352	1.613	1689.482
1616524727.349	1.608	1683.010
1616524757.351	1.611	1676.533
1616524787.352	1.608	1669.542
1616524817.348	1.608	1663.187
1616524847.354	1.612	1656.528
1616524877.351	1.611	1649.747
1616524907.350	1.609	1643.440
1616524937.348	1.612	1637.092
1616524967.348	1.607	1630.560
1616524997.352	1.609	1624.122
1616525027.348	1.608	1617.328
1616525057.351	1.611	1611.152
1616525087.350	1.610	1604.312
1616525117.351	1.611	1597.562
1616525147.349	1.612	1591.327
1616525177.347	1.607	1584.943
1616525207.351	1.612	1578.525
1616525237.349	1.608	1571.802
1616525267.352	1.609	1565.305
1616525297.348	1.609	1559.097
1616525327.347	1.608	1552.893
1616525357.351	1.610	1546.153
1616525387.353	1.613	1539.438
1616525417.352	1.610	1532.900
1616525447.352	1.609	1526.313
1616525477.352	1.613	1519.658
1616525507.348	1.607	1513.185
1616525537.357	1.614	1506.807
1616525567.347	1.609	1500.320
1616525597.349	1.609	1493.500
1616525627.351	1.610	1486.918
1616525657.348	1.606	1480.372
1616525687.350	1.609	1473.893
1616525717.350	1.609	1467.877
1616525747.352	1.612	1460.800
1616525777.345	1.606	1454.422
1616525807.352	1.613	1448.125
1616525837.346	1.607	1441.628
1616525867.352	1.612	1435.193
1616525897.351	1.609	1428.715
1616525927.349	1.609	1421.977
1616525957.345	1.608	1415.305
1616525987.351	1.611	1408.577
1616526017.352	1.612	1401.927
1616526047.351	1.609	1395.130
1616526077.350	1.611	1388.850
1616526107.353	1.611	1382.652
1616526137.349	1.611	1376.118
1616526167.347	1.609	1369.830
1616526197.350	1.609	1363.158
1616526227.351	1.609	1356.620
1616526257.349	1.609	1350.083
1616526287.349	1.609	1343.625
1616526317.350	1.612	1337.033
1616526347.351	1.611	1330.530
1616526377.353	1.609	1324.490
1616526407.353	1.613	1317.790
1616526437.348	1.609	1311.068
1616526467.349	1.609	1304.527
1616526497.350	1.612	1297.633
1616526527.350	1.611	1291.213
1616526557.351	1.609	1284.812
1616526587.349	1.610	1278.555
1616526617.352	1.611	1271.863
1616526647.351	1.609	1265.148
1616526677.348	1.609	1258.935
1616526707.351	1.613	1252.173
1616526737.346	1.609	1245.677
1616526767.352	1.610	1238.923
1616526797.351	1.611	1232.350
1616526827.346	1.606	1226.372
1616526857.350	1.611	1219.577
1616526887.350	1.608	1213.252
1616526917.349	1.612	1206.728
1616526947.348	1.609	1199.795
1616526977.349	1.609	1193.418
1616527007.351	1.609	1186.543
1616527037.350	1.609	1180.175
1616527067.351	1.612	1174.032
1616527097.348	1.609	1166.972
1616527127.351	1.613	1160.498
1616527157.351	1.609	1153.853
1616527187.351	1.609	1147.947
1616527217.350	1.609	1141.503
1616527247.351	1.609	1134.382
1616527277.351	1.609	1127.793
1616527307.351	1.609	1121.467
1616527337.350	1.610	1114.762
1616527367.348	1.608	1108.428
1616527397.355	1.612	1101.812
1616527427.353	1.612	1095.478
1616527457.352	1.612	1088.653
1616527487.348	1.608	1081.755
1616527517.352	1.612	1075.007
1616527547.345	1.606	1068.525
1616527577.352	1.612	1061.688
1616527607.352	1.610	1055.125
1616527637.348	1.609	1048.777
1616527667.353	1.610	1042.292
1616527697.349	1.609	1036.483
1616527727.352	1.611	1029.838
1616527757.347	1.609	1023.202
1616527787.353	1.612	1016.360
1616527817.347	1.607	1009.847
1616527847.350	1.611	1003.267
1616527877.351	1.609	996.680
1616527907.351	1.611	989.715
1616527937.346	1.606	982.947
1616527967.350	1.610	976.383
1616527997.350	1.612	970.702
1616528027.351	1.611	965.323
1616528057.348	1.609	959.103
1616528087.346	1.606	953.060
1616528117.349	1.612	947.390
1616528147.355	1.613	941.992
1616528177.350	1.609	936.985
1616528207.352	1.612	932.097
1616528237.351	1.609	927.135
1616528267.347	1.608	922.857
1616528297.351	1.612	918.132
1616528327.350	1.609	914.272
1616528357.354	1.612	910.095
1616528387.352	1.610	905.977
1616528417.350	1.611	902.058
1616528447.351	1.612	898.188
1616528477.348	1.609	894.930
1616528507.347	1.608	892.217
1616528537.351	1.612	888.930
1616528567.347	1.607	885.845
1616528597.350	1.608	882.878
1616528627.350	1.611	880.122
1616528657.349	1.612	877.417
1616528687.352	1.611	874.770
1616528717.353	1.612	872.843
1616528747.350	1.609	870.610
1616528777.352	1.613	868.782
1616528807.349	1.610	866.203
1616528837.348	1.607	864.383
1616528867.349	1.610	862.558
1616528897.350	1.610	860.472
1616528927.350	1.609	858.887
1616528957.348	1.611	857.522
1616528987.349	1.608	855.582
1616529017.347	1.609	854.368
1616529047.350	1.609	853.233
1616529077.352	1.612	852.290
1616529107.349	1.609	850.950
1616529137.349	1.608	849.475
1616529167.349	1.611	848.225
1616529197.352	1.609	847.160
1616529227.354	1.612	845.810
1616529257.353	1.612	844.978
1616529287.348	1.610	844.257
1616529317.346	1.608	843.222
1616529347.353	1.612	842.208
1616529377.347	1.608	841.388
1616529407.353	1.612	840.573
1616529437.345	1.608	839.657
1616529467.354	1.612	838.797
1616529497.351	1.611	838.218
1616529527.346	1.606	837.870
1616529557.352	1.612	837.347
1616529587.349	1.608	836.740
1616529617.349	1.609	835.870
1616529647.348	1.612	835.137
1616529677.351	1.609	834.602
1616529707.353	1.613	834.078
1616529737.349	1.608	833.542
1616529767.355	1.613	833.102
1616529797.353	1.611	832.685
1616529827.350	1.610	832.258
1616529857.354	1.609	831.980
1616529887.349	1.609	831.650
1616529917.355	1.612	831.247
1616529947.352	1.611	830.823
1616529977.348	1.608	830.362
1616530007.351	1.612	830.037
1616530037.347	1.609	829.722
1616530067.349	1.609	829.437
1616530097.351	1.611	829.222
1616530127.351	1.609	829.037
1616530157.352	1.613	828.743
1616530187.347	1.608	828.482
1616530217.348	1.611	828.338
1616530247.350	1.610	828.063
1616530277.351	1.609	828.003
1616530307.349	1.612	827.673
1616530337.351	1.612	827.518
1616530367.349	1.608	827.268
1616530397.349	1.612	827.202
1616530427.349	1.609	827.018
1616530457.349	1.608	826.860
1616530487.351	1.612	826.837
1616530517.347	1.611	826.768
1616530547.346	1.608	826.533
1616530577.352	1.611	826.452
1616530607.351	1.610	826.417
1616530637.348	1.609	826.253
1616530667.347	1.609	826.108
1616530697.348	1.608	826.110
1616530727.347	1.608	826.023
1616530757.349	1.611	826.020
1616530787.352	1.609	825.833
1616530817.350	1.611	825.932
1616530847.349	1.609	825.617
1616530877.350	1.609	825.528
1616530907.351	1.610	825.218
1616530937.354	1.610	825.185
1616530967.352	1.611	825.193
1616530997.351	1.608	825.102
1616531027.352	1.611	825.095
1616531057.353	1.612	825.047
1616531087.349	1.609	824.830
1616531117.353	1.611	824.812
1616531147.351	1.610	824.777
1616531177.351	1.610	824.785
1616531207.347	1.608	824.805
1616531237.348	1.608	824.802
1616531267.353	1.611	824.812
1616531297.346	1.606	824.785
1616531327.349	1.608	824.793
1616531357.349	1.609	824.625
1616531387.354	1.612	824.668
1616531417.355	1.611	824.468
1616531447.349	1.611	824.602
1616531477.351	1.609	824.640
1616531507.354	1.612	824.788
1616531537.348	1.609	824.780
1616531567.352	1.612	824.823
1616531597.349	1.609	824.877
1616531627.346	1.609	825.235
1616531657.347	1.609	826.117
1616531687.346	1.608	826.623
1616531717.348	1.611	827.282
1616531747.349	1.611	828.237
1616531777.351	1.610	829.438
1616531807.348	1.609	830.782
1616531837.350	1.609	832.557
1616531867.351	1.611	834.368
1616531897.350	1.612	836.773
1616531927.346	1.609	838.658
1616531957.351	1.609	841.092
1616531987.352	1.611	843.670
1616532017.351	1.611	846.278
1616532047.349	1.610	848.997
1616532077.351	1.611	852.107
1616532107.348	1.608	854.798
1616532137.351	1.611	858.180
1616532167.352	1.612	861.575
1616532197.351	1.611	864.972
1616532227.353	1.611	868.678
1616532257.348	1.609	872.325
1616532287.354	1.611	875.853
1616532317.349	1.609	880.085
1616532347.352	1.611	884.245
1616532377.351	1.612	888.520
1616532407.350	1.611	892.880
1616532437.347	1.609	897.038
1616532467.349	1.611	902.003
1616532497.349	1.608	906.897
1616532527.352	1.611	912.060
1616532557.348	1.609	916.797
1616532587.352	1.612	921.690
1616532617.348	1.608	926.663
1616532647.350	1.609	932.083
1616532677.354	1.611	936.948
1616532707.348	1.608	941.933
1616532737.346	1.607	947.315
1616532767.350	1.609	952.927
1616532797.351	1.611	958.198
1616532827.351	1.610	964.047
1616532857.352	1.611	969.087
1616532887.350	1.608	974.183
1616532917.347	1.609	978.995
1616532947.349	1.609	984.773
1616532977.349	1.609	990.307
1616533007.350	1.612	996.148
1616533037.353	1.610	1001.875
1616533067.348	1.606	1007.572
1616533097.351	1.609	1013.113
1616533127.351	1.612	1018.835
1616533157.349	1.609	1024.752
1616533187.352	1.612	1030.395
1616533217.350	1.608	1036.248
1616533247.350	1.609	1041.735
1616533277.350	1.609	1047.563
1616533307.348	1.611	1053.210
1616533337.349	1.609	1059.183
1616533367.352	1.611	1065.097
1616533397.351	1.612	1070.992
1616533427.351	1.611	1077.162
1616533457.347	1.608	1083.163
1616533487.353	1.613	1089.592
1616533517.349	1.609	1095.562
1616533547.349	1.612	1101.523
1616533577.351	1.610	1107.577
1616533607.352	1.612	1113.615
1616533637.351	1.609	1119.560
1616533667.349	1.611	1125.278
1616533697.347	1.608	1131.458
1616533727.350	1.609	1137.507
1616533757.351	1.610	1143.813
1616533787.352	1.612	1149.893
1616533817.351	1.610	1155.667
1616533847.353	1.612	1161.828
1616533877.347	1.609	1167.720
1616533907.352	1.611	1174.180
1616533937.349	1.609	1180.022
1616533967.350	1.609	1186.132
1616533997.349	1.609	1192.502
1616534027.350	1.612	1198.535
1616534057.349	1.609	1205.042
1616534087.349	1.611	1211.172
1616534117.350	1.611	1217.193
1616534147.349	1.612	1223.347
1616534177.350	1.612	1229.328
1616534207.348	1.608	1235.648
1616534237.351	1.612	1241.728
1616534267.348	1.610	1248.038
1616534297.349	1.609	1254.287
1616534327.350	1.609	1260.545
1616534357.351	1.610	1266.863
1616534387.353	1.609	1273.255
1616534417.348	1.609	1279.712
1616534447.351	1.610	1285.993
1616534477.352	1.611	1292.368
1616534507.351	1.609	1298.628
1616534537.350	1.611	1305.035
1616534567.350	1.611	1311.467
1616534597.348	1.608	1317.858
1616534627.354	1.611	1324.128
1616534657.350	1.610	1330.405
1616534687.351	1.611	1336.678
1616534717.347	1.608	1343.197
1616534747.351	1.609	1349.683
1616534777.350	1.609	1355.980
1616534807.353	1.613	1362.342
1616534837.354	1.611	1368.653
1616534867.352	1.612	1375.133
1616534897.351	1.612	1381.515
1616534927.349	1.610	1387.865
1616534957.349	1.607	1394.353
1616534987.351	1.609	1400.737
1616535017.351	1.612	1407.112
1616535047.351	1.609	1413.930
1616535077.349	1.609	1420.282
1616535107.351	1.609	1426.998
1616535137.349	1.612	1433.212
1616535167.354	1.612	1439.735
1616535197.349	1.608	1446.262
1616535227.352	1.611	1452.705
1616535257.353	1.611	1458.922
1616535287.350	1.609	1465.660
1616535317.352	1.612	1472.020
1616535347.353	1.612	1478.352
1616535377.349	1.609	1484.780
1616535407.349	1.611	1491.320
1616535437.350	1.609	1498.155
1616535467.352	1.612	1504.600
1616535497.349	1.608	1510.952
1616535527.350	1.611	1517.425
1616535557.352	1.612	1523.827
1616535587.354	1.612	1530.513
1616535617.348	1.608	1536.860
1616535647.349	1.612	1543.227
1616535677.352	1.611	1550.183
1616535707.348	1.609	1556.668
1616535737.348	1.609	1562.998
1616535767.351	1.610	1569.687
1616535797.349	1.609	1576.050
1616535827.350	1.612	1582.743
1616535857.349	1.609	1589.103
1616535887.350	1.609	1595.307
1616535917.347	1.610	1601.807
1616535947.347	1.611	1608.490
1616535977.352	1.612	1614.880
1616536007.350	1.609	1621.527
1616536037.347	1.609	1628.192
1616536067.354	1.610	1634.570
1616536097.349	1.607	1640.960
1616536127.347	1.609	1647.500
1616536157.352	1.610	1654.275
1616536187.351	1.610	1661.063
1616536217.350	1.611	1667.318
1616536247.348	1.609	1673.710
1616536277.351	1.611	1680.583
1616536307.349	1.608	1687.015
1616536337.349	1.608	1693.445
1616536367.348	1.609	1699.922
1616536397.349	1.608	1706.345
1616536427.351	1.612	1713.100
1616536457.344	1.607	1719.927
1616536487.351	1.611	1726.648
1616536517.348	1.608	1733.068
1616536547.351	1.609	1739.580
1616536577.353	1.612	1746.112
1616536607.352	1.611	1752.350
1616536637.350	1.609	1758.823
1616536667.350	1.610	1765.113
1616536697.351	1.610	1772.030
1616536727.354	1.613	1778.493
1616536757.348	1.608	1784.785
1616536787.351	1.612	1791.385
1616536817.351	1.611	1797.648
1616536847.350	1.612	1804.143
1616536877.352	1.611	1810.718
1616536907.351	1.610	1817.082
1616536937.350	1.610	1823.873
1616536967.350	1.609	1830.448
1616536997.347	1.609	1836.855
1616537027.349	1.609	1843.462
1616537057.347	1.609	1849.947
1616537087.354	1.612	1856.468
1616537117.350	1.609	1863.162
1616537147.350	1.609	1869.657
1616537177.345	1.608	1876.033
1616537207.349	1.609	1882.558
1616537237.351	1.611	1889.283
1616537267.348	1.611	1895.852
1616537297.350	1.609	1902.327
1616537327.351	1.609	1908.650
1616537357.349	1.609	1915.170
1616537387.352	1.613	1921.605
1616537417.354	1.609	1928.285
1616537447.349	1.611	1935.212
1616537477.350	1.611	1941.730
1616537507.351	1.612	1947.838
1616537537.348	1.610	1954.255
1616537567.351	1.612	1960.962
1616537597.348	1.608	1967.615
1616537627.347	1.609	1973.580
1616537657.351	1.613	1980.197
1616537687.353	1.609	1986.818
1616537717.354	1.612	1993.427
1616537747.351	1.610	2000.147
1616537777.350	1.609	2006.710
1616537807.345	1.607	2013.090
1616537837.351	1.612	2019.737
1616537867.347	1.608	2025.943
1616537897.347	1.609	2032.277
1616537927.350	1.612	2038.920
1616537957.350	1.610	2045.352
1616537987.347	1.608	2052.005
1616538017.350	1.609	2058.422
1616538047.348	1.611	2064.590
1616538077.349	1.611	2071.162
1616538107.349	1.609	2077.887
1616538137.348	1.608	2084.057
1616538167.347	1.611	2090.723
1616538197.347	1.606	2097.548
1616538227.350	1.612	2103.987
1616538257.352	1.609	2110.443
1616538287.350	1.609	2116.575
1616538317.349	1.610	2123.165
1616538347.352	1.612	2129.543
1616538377.352	1.610	2136.103
1616538407.351	1.611	2142.783
1616538437.351	1.611	2149.065
1616538467.348	1.609	2155.645
1616538497.350	1.611	2161.780
1616538527.351	1.609	2168.442
1616538557.352	1.612	2175.240
1616538587.350	1.607	2181.667
1616538617.350	1.611	2188.127
1616538647.352	1.613	2194.912
1616538677.352	1.609	2201.240
1616538707.354	1.614	2207.875
1616538737.351	1.609	2214.445
1616538767.351	1.611	2221.053
1616538797.349	1.611	2227.545
1616538827.350	1.609	2233.922
1616538857.349	1.611	2240.307
1616538887.349	1.611	2247.032
1616538917.349	1.608	2253.578
1616538947.352	1.612	2260.057
1616538977.350	1.609	2266.452
1616539007.351	1.612	2272.953
1616539037.353	1.612	2279.600
1616539067.351	1.609	2286.295
1616539097.348	1.608	2292.652
1616539127.350	1.609	2298.990
1616539157.348	1.611	2305.548
1616539187.347	1.607	2311.942
1616539217.354	1.612	2318.438
1616539247.351	1.612	2324.667
1616539277.351	1.609	2331.400
1616539307.350	1.611	2337.872
1616539337.348	1.611	2344.657
1616539367.348	1.608	2350.640
1616539397.349	1.609	2357.095
1616539427.352	1.612	2363.548
1616539457.347	1.608	2369.785
1616539487.355	1.611	2376.483
1616539517.350	1.611	2383.213
1616539547.351	1.609	2389.303
1616539577.347	1.607	2395.768
1616539607.349	1.609	2402.143
1616539637.350	1.609	2408.722
1616539667.348	1.608	2414.632
1616539697.349	1.611	2421.095
1616539727.351	1.609	2427.563
1616539757.353	1.613	2433.917
1616539787.350	1.609	2440.580
1616539817.350	1.611	2446.803
1616539847.351	1.612	2453.153
1616539877.350	1.611	2459.937
1616539907.351	1.612	2466.417
1616539937.349	1.609	2473.003
1616539967.347	1.608	2479.738
1616539997.353	1.613	2486.090
1616540027.353	1.611	2492.455
1616540057.350	1.609	2498.850
1616540087.351	1.612	2505.452
1616540117.350	1.609	2512.333
1616540147.348	1.609	2518.690
1616540177.352	1.610	2524.790
1616540207.351	1.609	2531.258
1616540237.351	1.611	2537.935
1616540267.351	1.611	2544.288
1616540297.347	1.611	2550.665
1616540327.352	1.610	2556.645
1616540357.348	1.611	2563.527
1616540387.348	1.611	2569.510
1616540417.349	1.611	2575.702
1616540447.350	1.608	2581.425
1616540477.345	1.606	2588.103
1616540507.353	1.613	2594.513
1616540537.350	1.608	2601.350
1616540567.349	1.612	2607.793
1616540597.354	1.612	2614.577
1616540627.348	1.608	2620.877
1616540657.349	1.608	2627.037
1616540687.351	1.609	2633.480
1616540717.350	1.610	2640.260
1616540747.350	1.609	2646.970
1616540777.352	1.613	2653.047
1616540807.346	1.609	2659.628
1616540837.344	1.608	2666.052
1616540867.351	1.608	2672.725
1616540897.349	1.609	2679.298
1616540927.350	1.611	2685.437
1616540957.349	1.611	2691.982
1616540987.349	1.609	2698.330
1616541017.350	1.612	2704.770
1616541047.345	1.608	2711.322
1616541077.347	1.609	2718.030
1616541107.350	1.609	2724.223
1616541137.354	1.611	2730.743
1616541167.348	1.609	2737.248
1616541197.351	1.611	2743.423
1616541227.346	1.609	2750.067
1616541257.351	1.609	2756.783
1616541287.353	1.612	2762.907
1616541317.350	1.608	2768.812
1616541347.351	1.612	2775.177
1616541377.349	1.606	2781.853
1616541407.346	1.608	2788.140
1616541437.352	1.611	2794.478
1616541467.350	1.609	2800.665
1616541497.346	1.609	2807.132
1616541527.348	1.611	2813.582
1616541557.349	1.609	2820.005
1616541587.351	1.611	2826.433
1616541617.353	1.612	2833.085
1616541647.348	1.609	2839.637
1616541677.349	1.612	2845.935
1616541707.349	1.608	2852.002
1616541737.349	1.609	2858.395
1616541767.352	1.613	2864.685
1616541797.351	1.609	2870.915
1616541827.349	1.609	2876.302
1616541857.352	1.612	2881.752
1616541887.351	1.611	2887.363
1616541917.350	1.611	2892.165
1616541947.346	1.608	2897.493
1616541977.351	1.611	2902.020
1616542007.351	1.612	2906.185
1616542037.346	1.608	2911.020
1616542067.354	1.609	2916.312
1616542097.350	1.606	2920.022
1616542127.352	1.611	2923.795
1616542157.350	1.608	2928.207
1616542187.349	1.612	2932.697
1616542217.351	1.609	2935.830
1616542247.348	1.608	2939.420
1616542277.352	1.612	2942.797
1616542307.349	1.610	2945.748
1616542337.351	1.611	2948.818
1616542367.349	1.611	2951.467
1616542397.348	1.612	2954.193
1616542427.347	1.609	2957.302
1616542457.349	1.609	2960.163
1616542487.351	1.611	2961.363
1616542517.351	1.612	2963.483
1616542547.351	1.608	2966.152
1616542577.353	1.612	2967.755
1616542607.348	1.611	2970.087
1616542637.350	1.611	2971.743
1616542667.349	1.610	2973.343
1616542697.349	1.610	2976.708
1616542727.353	1.610	2979.052
1616542757.351	1.611	2980.103
1616542787.348	1.609	2981.297
1616542817.351	1.609	2982.515
1616542847.350	1.609	2984.187
1616542877.349	1.608	2985.832
1616542907.351	1.609	2987.845
1616542937.351	1.612	2989.242
1616542967.349	1.608	2989.688
1616542997.350	1.609	2990.148
1616543027.351	1.611	2991.302
1616543057.351	1.609	2993.742
1616543087.350	1.611	2992.855
1616543117.351	1.609	2993.910
1616543147.348	1.608	2995.160
1616543177.351	1.613	2995.347
1616543207.345	1.608	2996.067
1616543237.351	1.612	2997.742
1616543267.352	1.611	2997.843
1616543297.348	1.608	2997.180
1616543327.354	1.612	2998.670
1616543357.345	1.607	3001.035
1616543387.347	1.611	3002.183
1616543417.348	1.611	3003.000
1616543447.353	1.612	3002.630
1616543477.349	1.608	3003.648
1616543507.348	1.611	3004.400
1616543537.346	1.608	3005.387
1616543567.351	1.611	3005.810
1616543597.347	1.608	3005.805
1616543627.349	1.611	3006.500
1616543657.352	1.612	3005.497
1616543687.351	1.611	3006.578
1616543717.351	1.612	3006.900
1616543747.350	1.608	3007.237
1616543777.351	1.611	3007.788
1616543807.347	1.608	3007.885
1616543837.350	1.612	3008.958
1616543867.349	1.608	3009.945
1616543897.353	1.610	3010.707
1616543927.344	1.608	3010.830
1616543957.349	1.611	3010.673
1616543987.349	1.609	3010.535
1616544017.349	1.611	3011.583
1616544047.354	1.613	3011.687
1616544077.351	1.609	3011.628
1616544107.351	1.609	3012.035
1616544137.351	1.609	3012.328
1616544167.350	1.612	3012.767
1616544197.349	1.608	3013.462
1616544227.350	1.609	3012.435
1616544257.347	1.608	3012.527
1616544287.349	1.612	3012.468
1616544317.352	1.611	3013.275
1616544347.353	1.611	3012.980
1616544377.349	1.608	3012.978
1616544407.352	1.612	3013.820
1616544437.347	1.607	3013.758
1616544467.349	1.611	3014.260
1616544497.346	1.608	3015.010
1616544527.348	1.611	3015.675
1616544557.349	1.611	3016.070
1616544587.353	1.612	3015.462
1616544617.349	1.609	3015.057
1616544647.347	1.606	3014.877
1616544677.349	1.612	3014.092
1616544707.353	1.612	3013.063
1616544737.348	1.608	3013.365
1616544767.352	1.612	3013.492
1616544797.350	1.609	3014.100
1616544827.351	1.609	3013.838
1616544857.349	1.608	3014.422
1616544887.349	1.612	3014.863
1616544917.354	1.609	3016.038
1616544947.349	1.609	3015.657
1616544977.350	1.609	3015.745
1616545007.353	1.614	3016.410
1616545037.349	1.609	3017.057
1616545067.349	1.612	3017.467
1616545097.348	1.611	3016.702
1616545127.353	1.612	3017.390
1616545157.353	1.609	3017.863
1616545187.347	1.609	3017.237
1616545217.349	1.609	3017.952
1616545247.349	1.610	3018.100
1616545277.351	1.611	3017.635
1616545307.351	1.609	3017.698
1616545337.350	1.609	3018.003
1616545367.351	1.611	3018.713
1616545397.349	1.610	3018.193
1616545427.350	1.609	3017.407
1616545457.351	1.612	3016.847
1616545487.351	1.609	3015.597
1616545517.349	1.609	3015.397
1616545547.353	1.611	3015.033
1616545577.352	1.611	3013.465
1616545607.351	1.611	3011.408
1616545637.348	1.609	3009.995
1616545667.346	1.608	3008.325
1616545697.349	1.609	3007.132
1616545727.353	1.609	3005.350
1616545757.350	1.609	3004.265
1616545787.349	1.609	3003.113
1616545817.354	1.609	3000.575
1616545847.349	1.609	2997.615
1616545877.349	1.612	2994.483
1616545907.347	1.608	2991.437
1616545937.349	1.612	2988.957
1616545967.350	1.608	2985.173
1616545997.349	1.609	2982.795
1616546027.351	1.611	2979.422
1616546057.351	1.609	2975.370
1616546087.352	1.612	2971.450
1616546117.349	1.611	2967.888
1616546147.348	1.608	2963.688
1616546177.349	1.612	2960.397
1616546207.347	1.611	2956.207
1616546237.352	1.613	2951.572
1616546267.346	1.608	2947.398
1616546297.349	1.608	2942.082
1616546327.352	1.609	2936.837
1616546357.350	1.611	2933.067
1616546387.350	1.611	2928.932
1616546417.350	1.609	2924.005
1616546447.349	1.608	2919.625
1616546477.352	1.612	2914.623
1616546507.345	1.608	2909.320
1616546537.351	1.612	2903.640
1616546567.349	1.611	2898.093
1616546597.349	1.609	2893.068
1616546627.349	1.608	2888.287
1616546657.349	1.611	2882.537
1616546687.355	1.611	2877.865
1616546717.349	1.609	2872.648
1616546747.351	1.611	2867.265
1616546777.347	1.608	2861.342
1616546807.353	1.611	2855.578
1616546837.349	1.609	2849.617
1616546867.346	1.609	2844.193
1616546897.350	1.611	2838.783
1616546927.350	1.609	2832.807
1616546957.346	1.609	2825.700
1616546987.350	1.612	2819.938
1616547017.347	1.608	2815.145
1616547047.351	1.612	2809.685
1616547077.350	1.608	2803.928
1616547107.350	1.612	2797.325
1616547137.350	1.609	2792.140
1616547167.349	1.609	2785.908
1616547197.350	1.609	2779.305
1616547227.350	1.612	2773.953
1616547257.353	1.611	2767.745
1616547287.347	1.608	2761.485
1616547317.348	1.611	2755.710
1616547347.349	1.611	2749.623
1616547377.349	1.611	2743.770
1616547407.352	1.609	2736.735
1616547437.347	1.609	2730.715
1616547467.346	1.608	2724.555
1616547497.353	1.612	2718.890
1616547527.349	1.611	2712.588
1616547557.354	1.611	2706.960
1616547587.350	1.611	2700.945
1616547617.347	1.609	2694.630
1616547647.349	1.608	2688.648
1616547677.352	1.612	2681.568
1616547707.349	1.609	2675.275
1616547737.351	1.611	2668.907
1616547767.352	1.611	2662.470
1616547797.349	1.609	2656.213
1616547827.351	1.608	2649.728
1616547857.349	1.609	2643.145
1616547887.349	1.612	2637.175
1616547917.351	1.611	2631.035
1616547947.351	1.611	2624.622
1616547977.352	1.613	2618.413
1616548007.346	1.609	2611.502
1616548037.350	1.609	2605.012
1616548067.353	1.609	2598.817
1616548097.350	1.611	2593.247
1616548127.350	1.610	2586.593
1616548157.349	1.609	2580.167
1616548187.353	1.611	2573.545
1616548217.350	1.610	2567.123
1616548247.351	1.611	2560.853
1616548277.350	1.611	2554.532
1616548307.351	1.609	2548.103
1616548337.352	1.610	2542.167
1616548367.349	1.609	2535.697
1616548397.350	1.609	2528.692
1616548427.351	1.612	2522.622
1616548457.351	1.611	2516.100
1616548487.347	1.609	2510.058
1616548517.350	1.611	2503.730
1616548547.352	1.612	2497.037
1616548577.350	1.609	2490.763
1616548607.352	1.612	2484.423
1616548637.352	1.614	2477.900
1616548667.347	1.608	2471.282
1616548697.348	1.611	2464.540
1616548727.349	1.609	2457.985
1616548757.349	1.609	2451.252
1616548787.350	1.609	2444.975
1616548817.351	1.612	2438.215
1616548847.350	1.612	2431.877
1616548877.353	1.612	2425.943
1616548907.351	1.609	2419.107
1616548937.350	1.609	2412.833
1616548967.353	1.613	2406.835
1616548997.351	1.609	2400.025
1616549027.355	1.612	2393.513
1616549057.349	1.609	2387.572
1616549087.352	1.612	2381.038
1616549117.349	1.609	2374.717
1616549147.350	1.609	2368.302
1616549177.349	1.612	2362.370
1616549207.347	1.610	2355.590
1616549237.348	1.610	2349.037
1616549267.347	1.608	2342.880
1616549297.351	1.611	2336.795
1616549327.349	1.609	2330.585
1616549357.353	1.609	2323.730
1616549387.351	1.611	2317.112
1616549417.350	1.609	2310.882
1616549447.350	1.610	2304.365
1616549477.347	1.609	2297.733
1616549507.347	1.608	2291.592
1616549537.347	1.609	2284.838
1616549567.351	1.612	2278.237
1616549597.349	1.608	2271.815
1616549627.351	1.611	2265.000
1616549657.352	1.611	2258.570
1616549687.347	1.608	2252.450
1616549717.349	1.611	2245.562
1616549747.348	1.608	2238.793
1616549777.348	1.611	2233.178
1616549807.352	1.611	2226.922
1616549837.350	1.612	2220.463
1616549867.354	1.611	2214.222
1616549897.349	1.608	2207.835
1616549927.350	1.608	2200.982
1616549957.350	1.609	2194.242
1616549987.353	1.612	2187.517
1616550017.351	1.611	2181.318
1616550047.351	1.609	2175.463
1616550077.351	1.612	2168.808
1616550107.349	1.609	2161.922
1616550137.355	1.612	2155.778
1616550167.348	1.609	2149.492
1616550197.349	1.611	2143.610
1616550227.347	1.609	2136.623
1616550257.353	1.612	2129.892
1616550287.355	1.612	2123.978
1616550317.346	1.606	2117.197
1616550347.351	1.611	2110.800
1616550377.351	1.610	2104.547
1616550407.346	1.609	2098.172
1616550437.349	1.611	2091.207
1616550467.345	1.607	2084.665
1616550497.353	1.612	2078.717
1616550527.354	1.611	2072.122
1616550557.346	1.610	2065.278
1616550587.351	1.612	2059.140
1616550617.352	1.611	2052.928
1616550647.349	1.609	2046.232
1616550677.355	1.612	2039.837
1616550707.350	1.609	2033.147
1616550737.345	1.607	2026.750
1616550767.351	1.611	2020.638
1616550797.353	1.611	2013.988
1616550827.347	1.610	2007.815
1616550857.347	1.608	2000.907
1616550887.350	1.611	1994.020
1616550917.351	1.610	1987.757
1616550947.352	1.611	1981.493
1616550977.348	1.608	1974.965
1616551007.349	1.609	1968.662
1616551037.352	1.611	1961.872
1616551067.346	1.609	1955.268
1616551097.352	1.614	1948.590
1616551127.349	1.607	1942.490
1616551157.351	1.613	1935.978
1616551187.348	1.608	1928.718
1616551217.352	1.614	1921.992
1616551247.347	1.608	1916.208
1616551277.353	1.612	1909.913
1616551307.347	1.609	1903.865
1616551337.352	1.611	1897.255
1616551367.352	1.613	1890.580
1616551397.350	1.608	1883.423
1616551427.352	1.611	1876.470
1616551457.348	1.610	1870.410
1616551487.349	1.609	1864.222
1616551517.351	1.611	1857.325
1616551547.353	1.611	1850.737
1616551577.353	1.609	1844.302
1616551607.350	1.609	1837.777
1616551637.352	1.614	1831.192
1616551667.349	1.608	1824.843
1616551697.351	1.611	1817.765
1616551727.352	1.613	1811.575
1616551757.346	1.609	1804.933
1616551787.349	1.609	1798.350
1616551817.351	1.612	1791.922
1616551847.351	1.611	1785.470
1616551877.346	1.608	1779.132
1616551907.349	1.609	1772.623
1616551937.353	1.612	1765.483
1616551967.353	1.614	1759.257
1616551997.344	1.607	1753.057
1616552027.350	1.612	1746.670
1616552057.346	1.606	1740.003
1616552087.351	1.611	1733.327
1616552117.348	1.608	1726.893
1616552147.353	1.613	1720.097
1616552177.348	1.606	1714.022
1616552207.352	1.612	1707.237
1616552237.349	1.606	1700.460
1616552267.351	1.612	1694.067
1616552297.355	1.611	1687.455
1616552327.351	1.611	1681.087
1616552357.349	1.612	1674.052
1616552387.348	1.611	1667.528
1616552417.355	1.611	1661.697
1616552447.351	1.613	1654.882
1616552477.351	1.612	1647.835
1616552507.350	1.608	1641.647
1616552537.351	1.611	1635.410
1616552567.350	1.612	1628.753
1616552597.347	1.610	1622.198
1616552627.350	1.608	1615.797
1616552657.352	1.611	1609.442
1616552687.351	1.609	1602.947
1616552717.351	1.609	1596.308
1616552747.351	1.611	1589.695
1616552777.349	1.611	1583.197
1616552807.350	1.609	1576.688
1616552837.350	1.611	1570.083
1616552867.352	1.611	1563.152
1616552897.347	1.608	1556.647
1616552927.351	1.612	1550.403
1616552957.347	1.609	1544.057
1616552987.353	1.612	1537.930
1616553017.350	1.609	1530.993
1616553047.349	1.611	1524.122
1616553077.352	1.611	1517.695
1616553107.350	1.611	1511.300
1616553137.350	1.611	1504.968
1616553167.349	1.609	1498.442
1616553197.347	1.609	1491.740
1616553227.352	1.612	1485.025
1616553257.349	1.611	1478.340
1616553287.352	1.611	1472.022
1616553317.351	1.610	1466.032
1616553347.348	1.608	1459.235
1616553377.349	1.609	1452.885
1616553407.350	1.611	1446.557
1616553437.351	1.611	1439.960
1616553467.351	1.611	1433.125
1616553497.350	1.609	1426.713
1616553527.351	1.611	1419.957
1616553557.348	1.608	1413.545
1616553587.349	1.609	1406.785
1616553617.350	1.609	1400.510
1616553647.349	1.609	1393.907
1616553677.353	1.613	1387.315
1616553707.349	1.608	1380.987
1616553737.352	1.611	1374.372
1616553767.354	1.612	1367.572
1616553797.352	1.611	1361.328
1616553827.351	1.609	1354.930
1616553857.347	1.611	1348.453
1616553887.347	1.606	1341.978
1616553917.351	1.610	1335.035
1616553947.349	1.611	1328.938
1616553977.349	1.608	1322.713
1616554007.351	1.611	1315.977
1616554037.349	1.610	1309.677
1616554067.349	1.609	1303.087
1616554097.346	1.609	1296.285
1616554127.351	1.611	1289.627
1616554157.346	1.609	1283.132
1616554187.347	1.608	1276.597
1616554217.351	1.612	1269.857
1616554247.348	1.609	1263.508
1616554277.350	1.609	1256.948
1616554307.348	1.609	1250.150
1616554337.350	1.612	1243.623
1616554367.355	1.612	1237.530
1616554397.352	1.608	1230.972
1616554427.349	1.609	1224.373
1616554457.345	1.608	1217.890
1616554487.349	1.610	1211.197
1616554517.347	1.607	1204.652
1616554547.351	1.612	1197.805
1616554577.352	1.611	1191.438
1616554607.348	1.609	1184.928
1616554637.349	1.611	1178.242
1616554667.351	1.609	1171.990
1616554697.351	1.612	1165.157
1616554727.351	1.608	1158.545
1616554757.349	1.609	1152.373
1616554787.346	1.608	1146.117
1616554817.350	1.612	1139.380
1616554847.349	1.609	1132.555
1616554877.349	1.609	1126.040
1616554907.353	1.611	1119.847
1616554937.354	1.611	1113.330
1616554967.350	1.608	1106.760
1616554997.352	1.610	1100.220
1616555027.350	1.612	1093.902
1616555057.353	1.611	1087.223
1616555087.351	1.611	1080.153
1616555117.351	1.611	1073.225
1616555147.349	1.608	1066.978
1616555177.349	1.612	1060.357
1616555207.345	1.608	1053.527
1616555237.354	1.612	1046.967
1616555267.348	1.607	1040.562
1616555297.352	1.611	1034.290
1616555327.352	1.611	1028.042
1616555357.349	1.608	1021.350
1616555387.347	1.608	1014.808
1616555417.352	1.612	1008.455
1616555447.355	1.611	1001.557
1616555477.357	1.615	994.703
1616555507.353	1.611	988.138
1616555537.349	1.611	982.000
1616555567.351	1.610	976.090
1616555597.347	1.608	970.888
1616555627.351	1.609	966.103
1616555657.349	1.611	960.160
1616555687.348	1.608	954.622
1616555717.354	1.609	949.592
1616555747.347	1.608	944.910
1616555777.350	1.609	940.163
1616555807.349	1.609	936.295
1616555837.349	1.609	932.348
1616555867.349	1.608	927.828
1616555897.350	1.609	923.962
1616555927.349	1.609	920.273
1616555957.355	1.613	916.788
1616555987.349	1.609	913.710
1616556017.347	1.608	910.032
1616556047.349	1.611	906.743
1616556077.348	1.608	903.295
1616556107.349	1.610	900.575
1616556137.351	1.609	897.233
1616556167.349	1.608	894.815
1616556197.349	1.608	892.677
1616556227.349	1.608	890.407
1616556257.348	1.611	887.872
1616556287.350	1.609	885.727
1616556317.349	1.608	883.857
1616556347.351	1.611	881.893
1616556377.354	1.612	879.978
1616556407.347	1.608	877.765
1616556437.354	1.611	876.067
1616556467.348	1.608	874.327
1616556497.351	1.611	873.125
1616556527.350	1.612	871.622
1616556557.349	1.608	870.173
1616556587.353	1.613	869.130
1616556617.355	1.611	867.740
1616556647.353	1.608	865.980
1616556677.349	1.611	864.833
1616556707.347	1.608	863.757
1616556737.353	1.612	862.723
1616556767.353	1.611	861.520
1616556797.345	1.607	860.503
1616556827.349	1.608	859.705
1616556857.354	1.612	858.863
1616556887.354	1.611	857.942
1616556917.349	1.611	857.018
1616556947.350	1.611	855.917
1616556977.347	1.609	855.098
1616557007.349	1.609	854.555
1616557037.349	1.609	853.957
1616557067.351	1.609	853.440
1616557097.347	1.609	852.880
1616557127.350	1.611	852.415
1616557157.349	1.611	851.980
1616557187.351	1.611	851.513
1616557217.351	1.612	850.718
1616557247.348	1.608	850.345
1616557277.353	1.609	849.593
1616557307.353	1.609	849.237
1616557337.354	1.615	848.887
1616557367.349	1.611	848.580
1616557397.348	1.611	848.057
1616557427.354	1.611	847.690
1616557457.349	1.608	847.467
1616557487.350	1.612	847.198
1616557517.351	1.612	846.785
1616557547.350	1.609	846.345
1616557577.349	1.611	846.060
1616557607.353	1.612	845.770
1616557637.349	1.609	845.578
1616557667.347	1.609	845.407
1616557697.348	1.610	845.247
1616557727.348	1.609	845.057
1616557757.351	1.611	844.838
1616557787.351	1.612	844.643
1616557817.345	1.607	844.465
1616557847.350	1.612	844.123
1616557877.349	1.608	843.685
1616557907.352	1.611	843.672
1616557937.350	1.611	843.565
1616557967.348	1.611	843.552
1616557997.350	1.609	843.333
1616558027.349	1.612	843.088
1616558057.349	1.608	843.037
1616558087.350	1.609	842.857
1616558117.355	1.613	842.702
1616558147.353	1.608	842.470
1616558177.351	1.609	842.473
1616558207.347	1.609	842.432
1616558237.350	1.609	842.335
1616558267.349	1.609	842.140
1616558297.350	1.609	842.073
1616558327.347	1.611	842.027
1616558357.351	1.612	841.923
1616558387.352	1.611	841.970
1616558417.349	1.609	841.792
1616558447.349	1.609	841.725
1616558477.356	1.612	841.663
1616558507.349	1.609	841.653
1616558537.347	1.611	841.588
1616558567.353	1.612	841.513
1616558597.348	1.609	841.438
1616558627.347	1.609	841.458
1616558657.354	1.611	841.443
1616558687.349	1.608	841.410
1616558717.351	1.612	841.297
1616558747.352	1.613	841.293
1616558777.347	1.609	841.292
1616558807.349	1.608	841.253
1616558837.351	1.611	841.202
1616558867.352	1.613	841.163
1616558897.347	1.608	841.238
1616558927.353	1.614	841.253
1616558957.350	1.610	841.242
1616558987.349	1.609	840.967
1616559017.349	1.609	841.007
1616559047.350	1.611	841.018
1616559077.352	1.611	841.097
1616559107.349	1.611	841.283
1616559137.350	1.611	841.582
1616559167.349	1.609	842.003
1616559197.351	1.609	842.702
1616559227.349	1.609	843.667
1616559257.348	1.609	844.702
1616559287.350	1.611	845.730
1616559317.353	1.612	847.317
1616559347.347	1.609	848.848
1616559377.349	1.609	850.753
1616559407.351	1.611	852.723
1616559437.348	1.609	854.570
1616559467.352	1.610	856.860
1616559497.349	1.611	859.435
1616559527.347	1.608	862.107
1616559557.349	1.607	864.790
1616559587.351	1.612	867.883
1616559617.347	1.609	870.802
1616559647.351	1.609	873.802
1616559677.352	1.614	877.160
1616559707.345	1.606	880.862
1616559737.352	1.614	884.457
1616559767.349	1.611	888.112
1616559797.347	1.609	892.007
1616559827.352	1.610	895.607
1616559857.351	1.609	900.010
1616559887.353	1.612	904.258
1616559917.351	1.612	909.103
1616559947.346	1.608	913.710
1616559977.351	1.609	917.853
1616560007.348	1.611	922.627
1616560037.351	1.610	927.343
1616560067.349	1.608	932.513
1616560097.348	1.610	937.180
1616560127.355	1.614	941.968
1616560157.349	1.608	947.293
1616560187.350	1.612	952.685
1616560217.345	1.607	958.052
1616560247.346	1.609	963.718
1616560277.347	1.609	968.710
1616560307.350	1.609	973.542
1616560337.352	1.611	978.170
1616560367.350	1.611	983.835
1616560397.349	1.612	989.323
1616560427.349	1.609	994.948
1616560457.354	1.614	1000.603
1616560487.348	1.610	1006.542
1616560517.349	1.609	1011.915
1616560547.350	1.611	1017.555
1616560577.350	1.609	1023.420
1616560607.351	1.610	1029.095
1616560637.351	1.612	1034.845
1616560667.350	1.609	1040.422
1616560697.352	1.612	1046.020
1616560727.349	1.609	1051.660
1616560757.348	1.609	1057.747
1616560787.346	1.607	1063.512
1616560817.353	1.613	1069.573
1616560847.348	1.609	1075.492
1616560877.351	1.612	1081.520
1616560907.350	1.609	1087.710
1616560937.349	1.609	1093.715
1616560967.347	1.610	1099.760
1616560997.348	1.608	1105.638
1616561027.350	1.611	1111.965
1616561057.354	1.609	1117.868
1616561087.347	1.611	1123.733
1616561117.348	1.611	1129.900
1616561147.351	1.611	1135.762
1616561177.350	1.611	1142.323
1616561207.348	1.609	1148.387
1616561237.348	1.611	1154.332
1616561267.350	1.611	1160.478
1616561297.352	1.609	1166.527
1616561327.349	1.611	1172.848
1616561357.350	1.610	1178.907
1616561387.349	1.608	1185.145
1616561417.351	1.612	1191.537
1616561447.346	1.608	1197.728
1616561477.351	1.612	1204.215
1616561507.347	1.608	1210.285
1616561537.349	1.611	1216.408
1616561567.352	1.610	1222.657
1616561597.351	1.609	1228.795
1616561627.349	1.611	1235.275
1616561657.351	1.611	1241.393
1616561687.348	1.609	1247.877
1616561717.352	1.612	1254.310
1616561747.350	1.609	1260.552
1616561777.347	1.609	1266.910
1616561807.352	1.611	1273.287
1616561837.348	1.610	1279.737
1616561867.351	1.609	1286.050
1616561897.349	1.611	1292.320
1616561927.351	1.612	1298.732
1616561957.345	1.607	1305.118
1616561987.352	1.609	1311.520
1616562017.345	1.608	1317.982
1616562047.351	1.611	1324.277
1616562077.349	1.611	1330.493
1616562107.349	1.610	1336.608
1616562137.349	1.609	1343.068
1616562167.350	1.610	1349.478
1616562197.351	1.610	1355.752
1616562227.347	1.609	1362.243
1616562257.351	1.611	1368.430
1616562287.352	1.612	1374.873
1616562317.351	1.609	1381.245
1616562347.350	1.611	1387.542
1616562377.347	1.609	1393.938
1616562407.349	1.609	1400.272
1616562437.353	1.609	1406.710
1616562467.349	1.610	1413.308
1616562497.351	1.611	1419.765
1616562527.351	1.611	1426.350
1616562557.351	1.609	1432.583
1616562587.351	1.611	1438.825
1616562617.347	1.611	1445.473
1616562647.347	1.608	1451.708
1616562677.347	1.607	1457.983
1616562707.351	1.611	1464.593
1616562737.349	1.611	1471.072
1616562767.348	1.611	1477.392
1616562797.347	1.609	1483.685
1616562827.349	1.611	1490.158
1616562857.350	1.611	1496.995
1616562887.351	1.611	1503.382
1616562917.348	1.610	1509.848
1616562947.347	1.608	1516.097
1616562977.350	1.611	1522.427
1616563007.351	1.612	1529.243
1616563037.351	1.611	1535.595
1616563067.354	1.611	1541.758
1616563097.352	1.609	1548.598
1616563127.349	1.609	1555.058
1616563157.349	1.612	1561.583
1616563187.347	1.607	1567.800
1616563217.351	1.611	1574.500
1616563247.351	1.609	1581.195
1616563277.348	1.611	1587.465
1616563307.351	1.612	1593.770
1616563337.347	1.609	1600.105
1616563367.352	1.612	1606.617
1616563397.351	1.611	1613.165
1616563427.350	1.611	1619.537
1616563457.351	1.611	1625.995
1616563487.351	1.611	1632.385
1616563517.349	1.609	1638.683
1616563547.349	1.609	1645.313
1616563577.353	1.611	1651.777
1616563607.352	1.611	1658.358
1616563637.348	1.608	1664.825
1616563667.348	1.609	1671.043
1616563697.351	1.610	1677.702
1616563727.352	1.612	1684.160
1616563757.347	1.608	1690.473
1616563787.352	1.612	1696.907
1616563817.349	1.609	1703.355
1616563847.346	1.609	1709.827
1616563877.346	1.609	1716.545
1616563907.349	1.608	1723.175
1616563937.351	1.610	1729.650
1616563967.347	1.609	1736.187
1616563997.348	1.611	1742.518
1616564027.351	1.609	1748.978
1616564057.349	1.609	1755.327
1616564087.351	1.612	1761.783
1616564117.355	1.612	1768.217
1616564147.348	1.611	1774.780
1616564177.347	1.608	1781.203
1616564207.353	1.614	1787.997
1616564237.353	1.610	1794.163
1616564267.351	1.609	1800.613
1616564297.349	1.608	1807.195
1616564327.348	1.610	1813.702
1616564357.347	1.610	1820.200
1616564387.347	1.608	1827.205
1616564417.352	1.614	1833.603
1616564447.352	1.609	1840.257
1616564477.352	1.611	1846.640
1616564507.352	1.609	1853.303
1616564537.350	1.612	1859.827
1616564567.352	1.609	1866.237
1616564597.347	1.611	1872.810
1616564627.352	1.613	1879.317
1616564657.350	1.609	1885.955
1616564687.348	1.609	1892.407
1616564717.350	1.611	1898.853
1616564747.352	1.612	1905.377
1616564777.345	1.608	1911.593
1616564807.350	1.612	1917.842
1616564837.354	1.612	1924.552
1616564867.350	1.610	1931.137
1616564897.351	1.614	1937.935
1616564927.346	1.609	1944.240
1616564957.347	1.609	1950.245
1616564987.352	1.609	1956.855
1616565017.347	1.609	1963.735
1616565047.347	1.609	1969.960
1616565077.353	1.613	1976.035
1616565107.346	1.610	1982.548
1616565137.353	1.611	1989.278
1616565167.349	1.611	1995.833
1616565197.351	1.611	2002.355
1616565227.350	1.611	2009.007
1616565257.352	1.612	2015.285
1616565287.349	1.609	2021.817
1616565317.351	1.609	2028.153
1616565347.352	1.613	2034.523
1616565377.347	1.607	2041.118
1616565407.351	1.611	2047.582
1616565437.351	1.612	2054.095
1616565467.350	1.610	2060.725
1616565497.349	1.609	2066.712
1616565527.351	1.611	2073.432
1616565557.350	1.609	2079.988
1616565587.349	1.609	2086.188
1616565617.349	1.608	2093.082
1616565647.348	1.611	2099.442
1616565677.352	1.611	2106.093
1616565707.349	1.611	2112.937
1616565737.350	1.611	2119.042
1616565767.346	1.609	2125.940
1616565797.346	1.609	2132.235
1616565827.349	1.611	2138.947
1616565857.351	1.609	2145.463
1616565887.350	1.611	2151.988
1616565917.348	1.610	2158.315
1616565947.354	1.611	2164.632
1616565977.352	1.611	2171.480
1616566007.350	1.609	2178.108
1616566037.349	1.608	2184.610
1616566067.352	1.612	2190.957
1616566097.355	1.613	2197.658
1616566127.349	1.611	2203.762
1616566157.348	1.608	2210.465
1616566187.347	1.609	2216.865
1616566217.354	1.611	2223.195
1616566247.351	1.611	2229.690
1616566277.346	1.609	2236.042
1616566307.348	1.611	2242.447
1616566337.348	1.607	2249.350
1616566367.352	1.612	2255.825
1616566397.350	1.609	2262.033
1616566427.348	1.609	2268.630
1616566457.351	1.612	2275.247
1616566487.351	1.609	2281.797
1616566517.349	1.608	2288.253
1616566547.349	1.612	2294.107
1616566577.352	1.609	2300.618
1616566607.351	1.612	2307.102
1616566637.352	1.608	2313.597
1616566667.350	1.610	2320.013
1616566697.348	1.609	2326.263
1616566727.353	1.614	2333.207
1616566757.345	1.608	2339.597
1616566787.351	1.609	2346.182
1616566817.353	1.608	2352.372
1616566847.351	1.611	2358.938
1616566877.347	1.609	2365.368
1616566907.350	1.610	2371.608
1616566937.350	1.608	2378.130
1616566967.351	1.609	2384.870
1616566997.353	1.612	2390.845
1616567027.353	1.613	2397.558
1616567057.350	1.612	2403.980
1616567087.350	1.611	2410.333
1616567117.354	1.612	2416.328
1616567147.349	1.608	2422.957
1616567177.352	1.611	2429.322
1616567207.350	1.608	2435.720
1616567237.352	1.610	2442.260
1616567267.346	1.607	2448.317
1616567297.349	1.611	2454.812
1616567327.351	1.609	2461.223
1616567357.354	1.612	2467.780
1616567387.352	1.612	2474.423
1616567417.352	1.612	2481.018
1616567447.349	1.608	2487.088
1616567477.353	1.612	2493.520
1616567507.352	1.609	2500.080
1616567537.350	1.611	2506.457
1616567567.351	1.610	2513.245
1616567597.354	1.612	2519.685
1616567627.348	1.609	2525.865
1616567657.349	1.609	2532.388
1616567687.351	1.611	2538.932
1616567717.349	1.608	2545.267
1616567747.352	1.613	2551.510
1616567777.352	1.611	2557.458
1616567807.351	1.611	2564.325
1616567837.349	1.608	2570.617
1616567867.350	1.609	2576.748
1616567897.349	1.610	2582.967
1616567927.349	1.610	2589.895
1616567957.348	1.608	2596.298
1616567987.351	1.611	2602.860
1616568017.346	1.607	2609.065
1616568047.353	1.610	2615.643
1616568077.350	1.610	2622.162
1616568107.350	1.611	2628.597
1616568137.347	1.608	2634.838
1616568167.352	1.610	2641.072
1616568197.350	1.609	2647.387
1616568227.349	1.609	2653.345
1616568257.349	1.610	2660.027
1616568287.347	1.610	2666.552
1616568317.345	1.607	2672.980
1616568347.348	1.611	2679.388
1616568377.348	1.607	2684.908
1616568407.351	1.612	2691.120
1616568437.347	1.607	2697.553
1616568467.351	1.611	2704.362
1616568497.347	1.608	2711.273
1616568527.351	1.611	2717.867
1616568557.350	1.606	2724.092
1616568587.348	1.609	2730.293
1616568617.350	1.610	2737.013
1616568647.352	1.611	2744.020
1616568677.354	1.613	2750.823
1616568707.349	1.608	2757.010
1616568737.350	1.609	2763.277
1616568767.349	1.612	2769.465
1616568797.353	1.611	2775.922
1616568827.349	1.608	2782.498
1616568857.352	1.611	2788.697
1616568887.347	1.608	2795.448
1616568917.350	1.611	2801.873
1616568947.347	1.608	2808.060
1616568977.349	1.610	2813.917
1616569007.352	1.611	2820.315
1616569037.349	1.607	2826.335
1616569067.351	1.611	2832.747
1616569097.350	1.609	2839.572
1616569127.351	1.611	2846.188
1616569157.350	1.608	2852.340
1616569187.353	1.614	2858.638
1616569217.351	1.609	2864.815
1616569247.352	1.612	2870.387
1616569277.350	1.608	2876.348
1616569307.351	1.612	2883.007
1616569337.347	1.608	2889.090
1616569367.351	1.612	2894.235
1616569397.348	1.609	2899.888
1616569427.351	1.612	2905.908
1616569457.348	1.609	2911.318
1616569487.347	1.608	2915.453
1616569517.353	1.611	2919.805
1616569547.351	1.612	2924.380
1616569577.348	1.609	2928.162
1616569607.346	1.607	2932.213
1616569637.347	1.607	2936.108
1616569667.346	1.608	2940.273
1616569697.351	1.611	2943.758
1616569727.347	1.608	2947.465
1616569757.352	1.609	2951.065
1616569787.352	1.611	2954.297
1616569817.348	1.607	2957.385
1616569847.356	1.613	2960.503
1616569877.350	1.611	2963.387
1616569907.347	1.607	2966.960
1616569937.354	1.611	2970.488
1616569967.350	1.609	2972.478
1616569997.351	1.609	2974.612
1616570027.348	1.609	2976.565
1616570057.352	1.611	2978.652
1616570087.347	1.609	2981.043
1616570117.349	1.609	2982.938
1616570147.352	1.611	2984.575
1616570177.348	1.608	2988.093
1616570207.348	1.609	2989.807
1616570237.349	1.609	2991.718
1616570267.350	1.611	2993.283
1616570297.351	1.612	2993.877
1616570327.352	1.610	2995.920
1616570357.345	1.608	2996.923
1616570387.353	1.615	2998.408
1616570417.354	1.611	3000.872
1616570447.353	1.612	3002.230
1616570477.352	1.611	3002.417
1616570507.351	1.611	3003.717
1616570537.348	1.609	3004.132
1616570567.351	1.612	3004.413
1616570597.351	1.612	3005.532
1616570627.350	1.609	3007.430
1616570657.351	1.611	3008.478
1616570687.354	1.613	3009.582
1616570717.351	1.613	3010.110
1616570747.353	1.609	3010.610
1616570777.352	1.611	3012.383
1616570807.347	1.607	3013.233
1616570837.350	1.609	3013.855
1616570867.351	1.609	3014.758
1616570897.350	1.609	3015.428
1616570927.350	1.609	3015.283
1616570957.349	1.609	3015.375
1616570987.352	1.612	3016.293
1616571017.349	1.609	3017.878
1616571047.350	1.611	3017.873
1616571077.350	1.609	3018.542
1616571107.348	1.608	3019.343
1616571137.352	1.612	3019.670
1616571167.349	1.608	3021.075
1616571197.349	1.608	3020.988
1616571227.354	1.615	3020.927
1616571257.351	1.611	3021.037
1616571287.351	1.608	3021.083
1616571317.349	1.609	3021.280
1616571347.355	1.615	3021.612
1616571377.348	1.607	3021.670
1616571407.349	1.608	3023.210
1616571437.348	1.607	3024.382
1616571467.353	1.611	3024.352
1616571497.348	1.608	3024.402
1616571527.352	1.613	3025.312
1616571557.350	1.609	3025.348
1616571587.350	1.608	3026.127
1616571617.350	1.612	3026.190
1616571647.346	1.607	3026.677
1616571677.350	1.612	3026.323
1616571707.350	1.611	3026.303
1616571737.350	1.607	3026.435
1616571767.352	1.613	3026.472
1616571797.349	1.611	3027.073
1616571827.350	1.612	3027.050
1616571857.350	1.608	3027.480
1616571887.345	1.606	3027.153
1616571917.349	1.610	3027.373
1616571947.346	1.608	3027.673
1616571977.349	1.608	3027.672
1616572007.349	1.611	3027.755
1616572037.346	1.607	3028.257
1616572067.351	1.614	3029.363
1616572097.349	1.608	3028.777
1616572127.347	1.610	3028.665
1616572157.353	1.611	3029.097
1616572187.351	1.608	3028.803
1616572217.351	1.612	3029.082
1616572247.346	1.608	3029.340
1616572277.353	1.611	3029.618
1616572307.351	1.613	3029.478
1616572337.346	1.607	3030.118
1616572367.351	1.609	3030.440
1616572397.352	1.612	3030.762
1616572427.350	1.609	3031.340
1616572457.350	1.611	3031.513
1616572487.348	1.607	3031.962
1616572517.348	1.609	3031.995
1616572547.353	1.609	3032.158
1616572577.351	1.612	3030.770
1616572607.349	1.608	3031.175
1616572637.347	1.607	3031.508
1616572667.351	1.611	3032.475
1616572697.352	1.611	3032.340
1616572727.345	1.607	3031.425
1616572757.352	1.612	3031.597
1616572787.355	1.612	3031.593
1616572817.352	1.612	3031.372
1616572847.351	1.609	3029.377
1616572877.350	1.610	3028.633
1616572907.353	1.610	3029.202
1616572937.351	1.606	3029.843
1616572967.354	1.614	3029.095
1616572997.349	1.608	3028.913
1616573027.353	1.612	3028.995
1616573057.350	1.607	3028.242
1616573087.349	1.611	3027.230
1616573117.356	1.613	3026.465
1616573147.347	1.606	3024.890
1616573177.355	1.610	3023.415
1616573207.350	1.607	3022.070
1616573237.352	1.611	3020.253
1616573267.348	1.610	3017.703
1616573297.353	1.611	3015.745
1616573327.351	1.610	3013.277
1616573357.348	1.607	3010.833
1616573387.354	1.613	3007.625
1616573417.351	1.611	3005.052
1616573447.354	1.610	3001.572
1616573477.350	1.611	2997.718
1616573507.354	1.610	2994.313
1616573537.353	1.613	2991.830
1616573567.348	1.609	2988.455
1616573597.353	1.613	2984.818
1616573627.352	1.607	2980.493
1616573657.352	1.610	2976.070
1616573687.351	1.611	2972.043
1616573717.351	1.609	2967.978
1616573747.352	1.611	2963.405
1616573777.352	1.609	2959.675
1616573807.351	1.610	2955.302
1616573837.352	1.610	2951.152
1616573867.348	1.606	2946.003
1616573897.354	1.610	2941.547
1616573927.351	1.609	2936.492
1616573957.349	1.609	2931.073
1616573987.350	1.610	2925.807
1616574017.350	1.607	2921.433
1616574047.355	1.613	2916.313
1616574077.347	1.607	2910.820
1616574107.356	1.613	2906.025
1616574137.351	1.607	2900.172
1616574167.352	1.612	2895.493
1616574197.352	1.609	2891.188
1616574227.352	1.613	2885.085
1616574257.353	1.610	2879.807
1616574287.354	1.609	2874.452
1616574317.351	1.607	2868.692
1616574347.355	1.614	2863.703
1616574377.350	1.609	2858.157
1616574407.351	1.611	2852.358
1616574437.353	1.611	2845.825
1616574467.355	1.609	2839.855
1616574497.353	1.613	2834.030
1616574527.350	1.609	2828.988
1616574557.349	1.610	2823.033
1616574587.350	1.609	2816.975
1616574617.351	1.611	2810.620
1616574647.353	1.613	2804.513
1616574677.351	1.610	2798.465
1616574707.353	1.613	2793.217
1616574737.350	1.609	2786.623
1616574767.353	1.612	2780.343
1616574797.352	1.610	2773.877
1616574827.354	1.613	2767.922
1616574857.348	1.609	2762.393
1616574887.352	1.611	2756.493
1616574917.352	1.612	2750.792
1616574947.354	1.613	2744.457
1616574977.355	1.613	2737.847
1616575007.347	1.606	2732.275
1616575037.351	1.610	2726.278
1616575067.349	1.610	2719.998
1616575097.349	1.607	2713.505
1616575127.354	1.610	2707.158
1616575157.355	1.614	2701.175
1616575187.351	1.609	2695.362
1616575217.356	1.610	2689.365
1616575247.350	1.610	2682.423
1616575277.351	1.609	2676.147
1616575307.354	1.613	2669.802
1616575337.356	1.613	2662.987
1616575367.349	1.609	2656.813
1616575397.350	1.612	2650.457
1616575427.357	1.613	2644.328
1616575457.352	1.609	2638.032
1616575487.350	1.612	2631.205
1616575517.352	1.612	2624.877
1616575547.348	1.607	2618.673
1616575577.354	1.611	2612.680
1616575607.355	1.614	2606.472
1616575637.346	1.606	2600.425
1616575667.352	1.609	2594.042
1616575697.347	1.610	2586.952
1616575727.351	1.610	2580.212
1616575757.352	1.610	2574.428
1616575787.353	1.613	2567.823
1616575817.351	1.609	2561.452
1616575847.352	1.609	2555.338
1616575877.353	1.613	2549.887
1616575907.349	1.608	2543.462
1616575937.347	1.607	2536.690
1616575967.352	1.613	2529.787
1616575997.356	1.613	2523.328
1616576027.349	1.610	2517.020
1616576057.354	1.614	2510.863
1616576087.349	1.607	2504.823
1616576117.356	1.613	2498.770
1616576147.353	1.613	2491.887
1616576177.352	1.612	2485.377
1616576207.350	1.607	2479.145
1616576237.348	1.607	2472.162
1616576267.351	1.610	2465.558
1616576297.352	1.610	2459.533
1616576327.354	1.609	2453.103
1616576357.351	1.611	2446.660
1616576387.351	1.609	2440.418
1616576417.351	1.609	2433.465
1616576447.352	1.613	2426.908
1616576477.357	1.613	2420.467
1616576507.356	1.613	2414.342
1616576537.351	1.610	2408.372
1616576567.352	1.613	2401.588
1616576597.351	1.611	2394.455
1616576627.350	1.607	2388.020
1616576657.349	1.610	2381.877
1616576687.357	1.613	2375.525
1616576717.353	1.611	2369.297
1616576747.354	1.613	2363.565
1616576777.351	1.610	2356.320
1616576807.354	1.612	2349.688
1616576837.356	1.611	2343.378
1616576867.349	1.609	2336.717
1616576897.349	1.607	2330.253
1616576927.349	1.608	2324.115
1616576957.354	1.611	2317.895
1616576987.347	1.606	2311.570
1616577017.357	1.613	2305.238
1616577047.351	1.610	2298.165
1616577077.347	1.607	2291.840
1616577107.353	1.613	2285.465
1616577137.351	1.609	2280.065
1616577167.352	1.612	2273.473
1616577197.354	1.610	2266.993
1616577227.351	1.609	2260.242
1616577257.356	1.612	2253.737
1616577287.350	1.609	2247.118
1616577317.355	1.613	2240.450
1616577347.350	1.607	2234.217
1616577377.354	1.613	2228.408
1616577407.353	1.613	2222.133
1616577437.347	1.607	2215.242
1616577467.352	1.612	2208.333
1616577497.356	1.613	2201.332
1616577527.350	1.611	2194.925
1616577557.347	1.606	2188.665
1616577587.355	1.613	2182.720
1616577617.350	1.612	2176.582
1616577647.349	1.610	2169.902
1616577677.349	1.609	2162.653
1616577707.350	1.612	2156.782
1616577737.347	1.608	2150.408
1616577767.351	1.610	2144.067
1616577797.350	1.608	2137.423
1616577827.350	1.610	2131.215
1616577857.351	1.610	2125.248
1616577887.347	1.609	2118.222
1616577917.352	1.613	2112.237
1616577947.346	1.607	2105.957
1616577977.351	1.610	2099.318
1616578007.352	1.613	2092.727
1616578037.350	1.611	2085.867
1616578067.349	1.609	2079.682
1616578097.349	1.610	2073.215
1616578127.354	1.613	2066.392
1616578157.351	1.609	2060.318
1616578187.351	1.612	2053.747
1616578217.351	1.612	2046.858
1616578247.347	1.608	2040.503
1616578277.353	1.610	2033.955
1616578307.351	1.612	2028.128
1616578337.347	1.607	2021.165
1616578367.352	1.612	2014.407
1616578397.354	1.610	2008.448
1616578427.346	1.606	2001.735
1616578457.350	1.610	1994.913
1616578487.352	1.613	1988.665
1616578517.350	1.609	1981.705
1616578547.351	1.612	1975.053
1616578577.348	1.610	1968.900
1616578607.347	1.608	1962.023
1616578637.352	1.612	1955.430
1616578667.348	1.607	1948.610
1616578697.347	1.607	1942.578
1616578727.354	1.612	1936.592
1616578757.350	1.610	1929.620
1616578787.347	1.606	1923.077
1616578817.354	1.613	1916.382
1616578847.353	1.610	1909.927
1616578877.347	1.607	1903.812
1616578907.349	1.608	1897.317
1616578937.352	1.609	1890.812
1616578967.352	1.609	1884.285
1616578997.352	1.613	1877.523
1616579027.347	1.606	1870.803
1616579056.045	1.611	1864.508
1616579083.681	1.614	1858.413
1616579113.679	1.615	1852.202
1616579143.674	1.608	1845.703
1616579173.674	1.609	1839.215
1616579203.675	1.610	1832.737
1616579233.671	1.609	1826.147
1616579263.678	1.612	1819.083
1616579293.671	1.608	1812.482
1616579323.674	1.607	1806.085
1616579353.674	1.612	1799.542
1616579383.674	1.607	1793.207
1616579413.674	1.609	1787.407
1616579443.677	1.610	1780.392
1616579473.675	1.610	1773.705
1616579503.673	1.608	1766.717
1616579533.681	1.612	1760.597
1616579563.672	1.609	1754.087
1616579593.672	1.608	1747.655
1616579623.671	1.606	1741.153
1616579653.671	1.607	1735.028
1616579683.679	1.614	1728.400
1616579713.672	1.608	1721.367
1616579743.680	1.610	1714.647
1616579773.672	1.607	1707.962
1616579803.676	1.612	1701.428
1616579833.678	1.612	1695.370
1616579863.678	1.608	1688.872
1616579893.677	1.613	1682.807
1616579923.679	1.614	1675.932
1616579953.673	1.609	1669.162
1616579983.679	1.612	1662.752
1616580013.673	1.609	1656.153
1616580043.674	1.608	1649.418
1616580073.675	1.612	1643.072
1616580103.676	1.608	1636.785
1616580133.675	1.607	1630.310
1616580163.676	1.611	1623.460
1616580193.676	1.609	1616.740
1616580223.678	1.612	1610.205
1616580253.678	1.613	1603.567
1616580283.674	1.607	1597.080
1616580313.679	1.613	1591.370
1616580343.674	1.609	1584.798
1616580373.670	1.607	1578.623
1616580403.675	1.612	1571.860
1616580433.674	1.608	1564.885
1616580463.674	1.609	1558.383
1616580493.677	1.613	1551.882
1616580523.672	1.606	1545.233
1616580553.675	1.608	1538.942
1616580583.677	1.612	1532.367
1616580613.676	1.608	1525.790
1616580643.680	1.613	1519.382
1616580673.677	1.609	1512.710
1616580703.678	1.612	1506.305
1616580733.672	1.607	1499.738
1616580763.676	1.610	1492.940
1616580793.677	1.613	1486.170
1616580823.676	1.611	1479.760
1616580853.672	1.608	1473.567
1616580883.679	1.615	1467.035
1616580913.673	1.608	1459.900
1616580943.674	1.610	1453.410
1616580973.672	1.608	1447.348
1616581003.674	1.610	1440.960
1616581033.671	1.609	1434.450
1616581063.678	1.613	1428.102
1616581093.674	1.610	1421.435
1616581123.674	1.609	1414.733
1616581153.678	1.613	1407.557
1616581183.674	1.608	1401.158
1616581213.675	1.609	1394.717
1616581243.676	1.612	1388.170
1616581273.671	1.606	1382.012
1616581303.679	1.612	1375.370
1616581333.671	1.606	1368.772
1616581363.676	1.613	1362.143
1616581393.671	1.607	1355.692
1616581423.675	1.610	1349.215
1616581453.678	1.612	1342.610
1616581483.672	1.607	1335.827
1616581513.674	1.612	1329.378
1616581543.674	1.607	1323.600
1616581573.675	1.609	1317.330
1616581603.674	1.610	1311.423
1616581633.678	1.612	1305.438
1616581663.671	1.608	1299.897
1616581693.678	1.610	1294.138
1616581723.670	1.607	1289.133
1616581753.677	1.612	1284.290
1616581783.676	1.608	1279.428
1616581813.671	1.606	1274.750
1616581843.675	1.612	1270.215
1616581873.674	1.608	1265.733
1616581903.672	1.610	1261.477
1616581933.675	1.609	1257.572
1616581963.675	1.609	1253.375
1616581993.672	1.611	1249.683
1616582023.672	1.610	1246.272
1616582053.671	1.608	1242.518
1616582083.674	1.610	1239.275
1616582113.675	1.612	1236.315
1616582143.675	1.609	1233.195
1616582173.675	1.612	1230.180
1616582203.675	1.609	1227.542
1616582233.678	1.611	1225.267
1616582263.672	1.608	1222.663
1616582293.676	1.610	1219.968
1616582323.679	1.612	1218.025
1616582353.675	1.608	1215.788
1616582383.672	1.609	1213.923
1616582413.673	1.610	1211.707
1616582443.677	1.609	1209.492
1616582473.675	1.609	1207.647
1616582503.676	1.612	1205.977
1616582533.674	1.606	1204.462
1616582563.675	1.611	1202.918
1616582593.670	1.608	1201.090
1616582623.677	1.612	1199.567
1616582653.674	1.608	1198.165
1616582683.678	1.612	1196.882
1616582713.677	1.614	1195.807
1616582743.677	1.613	1194.653
1616582773.672	1.608	1193.578
1616582803.674	1.609	1192.425
1616582833.674	1.608	1191.035
1616582863.677	1.613	1189.940
1616582893.676	1.609	1189.028
1616582923.677	1.612	1188.112
1616582953.674	1.609	1187.067
1616582983.672	1.607	1186.213
1616583013.674	1.612	1185.485
1616583043.678	1.610	1184.895
1616583073.672	1.608	1184.322
1616583103.687	1.611	1183.807
1616583133.670	1.607	1183.125
1616583163.678	1.613	1182.480
1616583193.676	1.609	1181.800
1616583223.674	1.609	1181.023
1616583253.675	1.609	1180.202
1616583283.672	1.608	1179.618
1616583313.676	1.611	1179.195
1616583343.673	1.609	1178.743
1616583373.673	1.608	1178.537
1616583403.676	1.609	1178.143
1616583433.673	1.611	1177.827
1616583463.676	1.612	1177.448
1616583493.677	1.611	1177.110
1616583523.672	1.609	1176.645
1616583553.675	1.611	1176.420
1616583583.672	1.608	1176.093
1616583613.676	1.610	1175.915
1616583643.677	1.609	1175.553
1616583673.674	1.611	1175.280
1616583703.675	1.614	1175.143
1616583733.677	1.609	1174.840
1616583763.672	1.611	1174.530
1616583793.674	1.609	1174.222
1616583823.675	1.611	1174.092
1616583853.675	1.609	1173.818
1616583883.673	1.609	1173.710
1616583913.680	1.612	1173.717
1616583943.678	1.613	1173.370
1616583973.676	1.609	1173.302
1616584003.675	1.611	1173.163
1616584033.677	1.609	1173.027
1616584063.674	1.610	1172.953
1616584093.671	1.609	1172.637
1616584123.677	1.614	1172.510
1616584153.671	1.608	1172.452
1616584183.674	1.609	1172.412
1616584213.673	1.607	1172.215
1616584243.674	1.609	1172.098
1616584273.677	1.613	1171.940
1616584303.674	1.609	1172.000
1616584333.673	1.608	1171.700
1616584363.677	1.612	1171.720
1616584393.674	1.609	1171.665
1616584423.675	1.614	1171.680
1616584453.674	1.608	1171.558
1616584483.677	1.610	1171.367
1616584513.675	1.609	1171.312
1616584543.679	1.610	1171.293
1616584573.673	1.609	1171.282
1616584603.679	1.610	1171.062
1616584633.677	1.609	1170.965
1616584663.673	1.609	1170.887
1616584693.675	1.608	1170.882
1616584723.677	1.612	1170.912
1616584753.677	1.609	1170.772
1616584783.674	1.609	1170.853
1616584813.677	1.613	1170.842
1616584843.677	1.609	1170.567
1616584873.674	1.608	1170.492
1616584903.674	1.609	1170.493
1616584933.674	1.612	1170.452
1616584963.674	1.607	1170.503
1616584993.672	1.610	1170.207
1616585023.674	1.609	1170.453
1616585053.677	1.610	1170.440
1616585083.671	1.608	1170.320
1616585113.671	1.609	1170.323
1616585143.674	1.608	1170.720
1616585173.671	1.607	1170.943
1616585203.679	1.613	1171.567
1616585233.676	1.609	1172.287
1616585263.675	1.609	1173.133
1616585293.672	1.609	1174.068
1616585323.677	1.612	1175.208
1616585353.675	1.611	1176.513
1616585383.677	1.611	1177.952
1616585413.679	1.614	1179.508
1616585443.673	1.608	1181.943
1616585473.674	1.609	1184.175
1616585503.675	1.612	1186.205
1616585533.675	1.610	1188.762
1616585563.675	1.610	1191.722
1616585593.675	1.611	1194.738
1616585623.676	1.613	1197.522
1616585653.674	1.609	1200.732
1616585683.674	1.609	1204.257
1616585713.673	1.610	1207.388
1616585743.674	1.609	1211.172
1616585773.679	1.614	1214.825
1616585803.673	1.608	1218.458
1616585833.677	1.612	1222.395
1616585863.674	1.609	1226.615
1616585893.675	1.612	1230.568
1616585923.674	1.608	1235.108
1616585953.674	1.612	1239.260
1616585983.677	1.610	1243.797
1616586013.674	1.609	1248.350
1616586043.676	1.612	1253.013
1616586073.671	1.608	1257.722
1616586103.678	1.612	1262.397
1616586133.671	1.606	1267.483
1616586163.675	1.612	1272.260
1616586193.673	1.609	1277.505
1616586223.675	1.611	1282.458
1616586253.674	1.610	1287.683
1616586283.675	1.609	1292.850
1616586313.674	1.611	1298.070
1616586343.677	1.609	1303.453
1616586373.675	1.610	1308.810
1616586403.675	1.610	1314.098
1616586433.672	1.608	1319.838
1616586463.674	1.609	1325.035
1616586493.676	1.611	1330.482
1616586523.673	1.609	1335.877
1616586553.673	1.609	1341.777
1616586583.672	1.611	1347.487
1616586613.673	1.611	1353.108
1616586643.674	1.609	1358.713
1616586673.672	1.610	1364.377
1616586703.678	1.612	1370.337
1616586733.674	1.609	1376.005
1616586763.673	1.611	1382.013
1616586793.673	1.609	1387.630
1616586823.672	1.608	1393.528
1616586853.674	1.608	1399.372
1616586883.679	1.613	1405.488
1616586913.672	1.606	1411.402
1616586943.673	1.612	1417.438
1616586973.674	1.608	1423.755
1616587003.675	1.612	1429.500
1616587033.674	1.608	1435.218
1616587063.675	1.608	1441.427
1616587093.674	1.612	1447.345
1616587123.678	1.612	1453.488
1616587153.672	1.606	1459.483
1616587183.675	1.611	1465.708
1616587213.675	1.608	1471.703
1616587243.675	1.608	1477.745
1616587273.678	1.615	1483.767
1616587303.671	1.608	1490.043
1616587333.677	1.613	1496.650
1616587363.678	1.611	1502.632
1616587393.675	1.609	1508.817
1616587423.672	1.609	1514.697
1616587453.675	1.610	1520.920
1616587483.672	1.606	1527.132
1616587513.672	1.609	1533.503
1616587543.673	1.611	1539.558
1616587573.674	1.611	1545.833
1616587603.670	1.608	1552.300
1616587633.673	1.608	1558.467
1616587663.678	1.615	1564.597
1616587693.675	1.608	1571.210
1616587723.677	1.611	1577.413
1616587753.676	1.609	1583.750
1616587783.674	1.608	1590.055
1616587813.670	1.607	1595.998
1616587843.679	1.612	1602.247
1616587873.672	1.609	1608.835
1616587903.678	1.611	1615.217
1616587933.672	1.608	1621.540
1616587963.676	1.615	1627.887
1616587993.669	1.606	1634.073
1616588023.675	1.610	1640.308
1616588053.677	1.613	1646.785
1616588083.674	1.610	1653.277
1616588113.677	1.611	1659.745
1616588143.674	1.611	1665.967
1616588173.675	1.609	1672.137
1616588203.676	1.613	1678.695
1616588233.675	1.608	1685.075
1616588263.677	1.612	1691.248
1616588293.674	1.609	1697.540
1616588323.676	1.612	1703.697
1616588353.671	1.606	1710.195
1616588383.678	1.613	1716.997
1616588413.682	1.613	1723.520
1616588443.673	1.612	1729.773
1616588473.675	1.609	1736.243
1616588503.676	1.611	1742.545
1616588533.678	1.614	1748.820
1616588563.675	1.609	1755.287
1616588593.675	1.611	1761.622
1616588623.676	1.612	1768.180
1616588653.675	1.608	1774.555
1616588683.674	1.609	1781.000
1616588713.675	1.609	1787.548
1616588743.673	1.609	1793.712
1616588773.677	1.612	1800.248
1616588803.675	1.609	1806.637
1616588833.675	1.609	1813.055
1616588863.675	1.612	1819.282
1616588893.676	1.609	1826.012
1616588923.677	1.611	1832.285
1616588953.675	1.612	1838.627
1616588983.676	1.609	1844.842
1616589013.671	1.609	1851.323
1616589043.678	1.612	1857.537
1616589073.678	1.609	1863.983
1616589103.675	1.612	1870.250
1616589133.672	1.607	1876.568
1616589163.674	1.612	1883.158
1616589193.673	1.606	1889.760
1616589223.676	1.612	1896.235
1616589253.671	1.609	1902.585
1616589283.674	1.611	1908.807
1616589313.674	1.608	1915.132
1616589343.675	1.609	1921.375
1616589373.677	1.613	1927.892
1616589403.671	1.608	1934.723
1616589433.675	1.612	1941.265
1616589463.671	1.606	1947.317
1616589493.673	1.611	1953.447
1616589523.676	1.609	1960.050
1616589553.675	1.612	1966.637
1616589583.675	1.611	1972.443
1616589613.672	1.608	1979.000
1616589643.680	1.613	1985.310
1616589673.682	1.614	1991.945
1616589703.672	1.609	1998.633
1616589733.676	1.609	2005.057
1616589763.672	1.607	2011.383
1616589793.678	1.612	2017.715
1616589823.676	1.612	2024.023
1616589853.673	1.611	2030.318
1616589883.675	1.610	2036.662
1616589913.676	1.608	2043.370
1616589943.678	1.614	2050.030
1616589973.672	1.608	2056.238
1616590003.677	1.612	2062.757
1616590033.675	1.609	2068.855
1616590063.675	1.612	2075.525
1616590093.676	1.611	2082.028
1616590123.673	1.609	2088.250
1616590153.676	1.612	2095.215
1616590183.672	1.608	2101.517
1616590213.675	1.611	2108.000
1616590243.673	1.608	2114.547
1616590273.675	1.608	2120.793
1616590303.671	1.609	2127.458
1616590333.673	1.608	2133.780
1616590363.674	1.611	2140.322
1616590393.676	1.611	2146.523
1616590423.677	1.610	2153.082
1616590453.674	1.611	2159.052
1616590483.672	1.609	2165.488
1616590513.672	1.608	2172.215
1616590543.677	1.609	2178.672
1616590573.674	1.609	2185.298
1616590603.676	1.611	2191.713
1616590633.676	1.610	2198.347
1616590663.674	1.608	2204.345
1616590693.673	1.612	2211.005
1616590723.670	1.606	2217.420
1616590753.677	1.613	2223.413
1616590783.671	1.608	2229.860
1616590813.675	1.609	2236.233
1616590843.674	1.611	2242.625
1616590873.673	1.608	2249.418
1616590903.672	1.611	2255.865
1616590933.678	1.611	2261.925
1616590963.675	1.612	2268.462
1616590993.670	1.607	2274.917
1616591023.676	1.612	2281.595
1616591053.673	1.611	2288.178
1616591083.678	1.611	2294.027
1616591113.675	1.609	2300.803
1616591143.672	1.610	2306.948
1616591173.675	1.612	2313.325
1616591203.678	1.609	2319.772
1616591233.675	1.609	2325.937
1616591263.677	1.612	2332.915
1616591293.674	1.609	2339.162
1616591323.674	1.612	2345.683
1616591353.678	1.611	2351.927
1616591383.674	1.609	2358.362
1616591413.677	1.612	2364.760
1616591443.674	1.608	2370.773
1616591473.677	1.611	2377.395
1616591503.674	1.610	2383.822
1616591533.675	1.614	2389.935
1616591563.674	1.609	2396.470
1616591593.677	1.613	2402.742
1616591623.673	1.611	2409.280
1616591653.675	1.612	2415.220
1616591683.676	1.611	2421.755
1616591713.677	1.613	2428.243
1616591743.677	1.609	2434.338
1616591773.675	1.609	2440.872
1616591803.675	1.613	2446.923
1616591833.673	1.608	2453.022
1616591863.677	1.612	2459.555
1616591893.678	1.610	2465.715
1616591923.674	1.610	2472.260
1616591953.672	1.609	2478.778
1616591983.679	1.613	2485.082
1616592013.674	1.610	2491.467
1616592043.682	1.612	2497.890
1616592073.674	1.609	2504.188
1616592103.678	1.610	2510.960
1616592133.675	1.609	2517.348
1616592163.679	1.613	2523.650
1616592193.674	1.610	2530.015
1616592223.676	1.610	2536.688
1616592253.681	1.613	2543.257
1616592283.673	1.609	2549.337
1616592313.678	1.613	2555.445
1616592343.680	1.612	2562.147
1616592373.678	1.613	2568.247
1616592403.677	1.610	2574.830
1616592433.677	1.610	2580.975
1616592463.675	1.610	2587.430
1616592493.679	1.615	2593.885
1616592523.675	1.607	2600.332
1616592553.679	1.613	2606.812
1616592583.680	1.612	2613.080
1616592613.677	1.611	2619.273
1616592643.680	1.610	2625.725
1616592673.679	1.613	2631.758
1616592703.676	1.609	2638.508
1616592733.678	1.612	2645.257
1616592763.674	1.609	2651.190
1616592793.677	1.610	2657.812
1616592823.675	1.610	2663.523
1616592853.679	1.610	2670.023
1616592883.683	1.613	2677.087
1616592913.673	1.609	2682.837
1616592943.677	1.613	2689.418
1616592973.675	1.610	2695.695
1616593003.680	1.610	2701.883
1616593033.676	1.610	2708.320
1616593063.671	1.607	2714.417
1616593093.677	1.610	2720.963
1616593123.678	1.610	2727.350
1616593153.674	1.610	2733.685
1616593183.680	1.611	2740.245
1616593213.674	1.607	2746.210
1616593243.678	1.613	2752.542
1616593273.674	1.609	2759.135
1616593303.676	1.612	2765.272
1616593333.674	1.610	2771.840
1616593363.679	1.610	2777.985
1616593393.677	1.611	2784.667
1616593423.677	1.612	2791.113
1616593453.677	1.610	2796.580
1616593483.679	1.614	2802.970
1616593513.673	1.609	2809.490
1616593543.677	1.610	2815.843
1616593573.678	1.612	2822.462
1616593603.678	1.612	2828.650
1616593633.678	1.612	2835.245
1616593663.683	1.614	2841.887
1616593693.676	1.610	2848.583
1616593723.675	1.610	2854.565
1616593753.676	1.612	2861.093
1616593783.676	1.609	2867.545
1616593813.678	1.612	2873.773
1616593843.681	1.611	2880.030
1616593873.675	1.609	2885.983
1616593903.677	1.610	2891.725
1616593933.675	1.609	2898.192
1616593963.674	1.609	2903.057
1616593993.680	1.613	2908.075
1616594023.674	1.609	2913.638
1616594053.678	1.614	2918.568
1616594083.673	1.608	2923.130
1616594113.675	1.609	2928.810
1616594143.675	1.609	2933.442
1616594173.678	1.613	2938.180
1616594203.677	1.610	2942.660
1616594233.677	1.613	2946.693
1616594263.675	1.609	2951.415
1616594293.678	1.611	2954.983
1616594323.678	1.613	2958.393
1616594353.679	1.610	2960.750
1616594383.678	1.611	2964.065
1616594413.676	1.607	2968.047
1616594443.680	1.614	2971.303
1616594473.675	1.609	2973.847
1616594503.674	1.612	2975.793
1616594533.678	1.609	2979.283
1616594563.676	1.612	2981.960
1616594593.678	1.609	2983.742
1616594623.674	1.609	2985.115
1616594653.678	1.613	2987.255
1616594683.675	1.609	2988.628
1616594713.677	1.610	2990.793
1616594743.681	1.612	2993.862
1616594773.678	1.612	2996.768
1616594803.674	1.608	2998.165
1616594833.679	1.613	2999.777
1616594863.683	1.614	3001.110
1616594893.678	1.610	3003.862
1616594923.672	1.610	3005.892
1616594953.678	1.611	3007.407
1616594983.675	1.609	3009.085
1616595013.675	1.607	3010.868
1616595043.673	1.610	3011.868
1616595073.678	1.611	3012.982
1616595103.676	1.609	3014.095
1616595133.682	1.613	3014.695
1616595163.680	1.613	3015.057
1616595193.672	1.606	3015.293
1616595223.679	1.610	3016.613
1616595253.674	1.608	3018.290
1616595283.678	1.612	3019.462
1616595313.678	1.610	3020.792
1616595343.673	1.610	3021.610
1616595373.674	1.609	3022.625
1616595403.680	1.613	3023.025
1616595433.681	1.612	3024.718
1616595463.680	1.613	3025.955
1616595493.678	1.612	3026.043
1616595523.678	1.610	3025.648
1616595553.678	1.612	3026.118
1616595583.676	1.611	3026.517
1616595613.674	1.609	3026.872
1616595643.675	1.609	3027.657
1616595673.680	1.613	3028.067
1616595703.679	1.610	3028.698
1616595733.675	1.609	3029.860
1616595763.675	1.610	3030.292
1616595793.675	1.611	3030.832
1616595823.674	1.609	3031.995
1616595853.678	1.613	3032.023
1616595883.679	1.611	3032.953
1616595913.675	1.609	3032.915
1616595943.678	1.612	3033.003
1616595973.675	1.609	3033.418
1616596003.675	1.611	3033.143
1616596033.678	1.610	3033.135
1616596063.680	1.610	3033.418
1616596093.679	1.612	3033.808
1616596123.681	1.614	3034.675
1616596153.674	1.609	3035.267
1616596183.671	1.609	3035.652
1616596213.675	1.610	3035.783
1616596243.675	1.611	3036.407
1616596273.675	1.610	3036.148
1616596303.676	1.610	3036.180
1616596333.675	1.613	3036.970
1616596363.676	1.610	3036.985
1616596393.676	1.611	3037.085
1616596423.673	1.609	3037.210
1616596453.678	1.611	3037.167
1616596483.679	1.613	3036.983
1616596513.673	1.607	3037.878
1616596543.677	1.610	3037.723
1616596573.678	1.611	3038.845
1616596603.679	1.611	3038.817
1616596633.676	1.610	3038.922
1616596663.673	1.609	3039.183
1616596693.677	1.609	3039.723
1616596723.679	1.612	3039.715
1616596753.677	1.609	3039.860
1616596783.677	1.613	3040.482
1616596813.673	1.609	3040.362
1616596843.679	1.614	3040.897
1616596873.675	1.607	3041.242
1616596903.680	1.613	3040.882
1616596933.677	1.610	3040.100
1616596963.675	1.611	3039.888
1616596993.677	1.611	3040.263
1616597023.677	1.610	3040.368
1616597053.677	1.610	3041.603
1616597083.677	1.610	3042.140
1616597113.678	1.613	3042.387
1616597143.674	1.607	3042.408
1616597173.680	1.611	3042.685
1616597203.679	1.609	3042.313
1616597233.678	1.613	3042.473
1616597263.675	1.609	3042.333
1616597293.674	1.609	3042.193
1616597323.678	1.613	3042.498
1616597353.677	1.610	3042.588
1616597383.677	1.611	3043.405
1616597413.674	1.609	3043.197
1616597443.681	1.611	3043.088
1616597473.678	1.610	3043.360
1616597503.678	1.611	3043.752
1616597533.673	1.610	3042.855
1616597563.676	1.613	3042.062
1616597593.672	1.609	3040.965
1616597623.681	1.611	3040.133
1616597653.676	1.610	3039.592
1616597683.678	1.611	3037.772
1616597713.675	1.611	3036.717
1616597743.677	1.611	3035.002
1616597773.675	1.608	3033.772
1616597803.679	1.613	3032.107
1616597833.679	1.612	3030.253
1616597863.674	1.608	3029.187
1616597893.678	1.613	3028.177
1616597923.676	1.610	3025.727
1616597953.678	1.613	3023.065
1616597983.677	1.609	3020.038
1616598013.674	1.612	3017.563
1616598043.673	1.609	3015.505
1616598073.673	1.609	3012.542
1616598103.675	1.610	3009.720
1616598133.679	1.614	3005.393
1616598163.671	1.606	3002.543
1616598193.680	1.613	2999.287
1616598223.678	1.612	2995.542
1616598253.678	1.611	2992.495
1616598283.678	1.611	2987.932
1616598313.680	1.610	2983.290
1616598343.682	1.614	2979.418
1616598373.677	1.611	2974.327
1616598403.677	1.610	2969.995
1616598433.682	1.613	2964.880
1616598463.675	1.609	2960.663
1616598493.678	1.613	2956.128
1616598523.677	1.613	2951.387
1616598553.674	1.611	2946.950
1616598583.678	1.610	2942.553
1616598613.678	1.610	2938.143
1616598643.677	1.610	2932.985
1616598673.677	1.612	2927.273
1616598703.674	1.609	2922.085
1616598733.681	1.614	2917.952
1616598763.678	1.610	2912.662
1616598793.673	1.609	2907.135
1616598823.678	1.612	2901.678
1616598853.673	1.609	2897.010
1616598883.677	1.610	2891.653
1616598913.676	1.609	2886.327
1616598943.675	1.610	2880.110
1616598973.673	1.610	2874.610
1616599003.674	1.609	2868.803
1616599033.674	1.608	2863.518
1616599063.675	1.609	2857.772
1616599093.678	1.609	2851.550
1616599123.673	1.612	2846.403
1616599153.674	1.609	2840.708
1616599183.678	1.612	2834.460
1616599213.677	1.610	2828.082
1616599243.675	1.609	2822.313
1616599273.673	1.609	2816.295
1616599303.678	1.615	2809.802
1616599333.675	1.609	2803.902
1616599363.678	1.610	2798.127
1616599393.673	1.609	2792.438
1616599423.677	1.610	2785.993
1616599453.671	1.606	2779.870
1616599483.675	1.613	2773.727
1616599513.676	1.608	2767.533
1616599543.675	1.612	2760.900
1616599573.675	1.610	2754.988
1616599603.678	1.613	2749.312
1616599633.677	1.610	2743.055
1616599663.675	1.608	2736.722
1616599693.678	1.615	2730.775
1616599723.675	1.610	2724.580
1616599753.674	1.609	2718.382
1616599783.671	1.609	2712.258
1616599813.672	1.607	2706.130
1616599843.672	1.608	2700.537
1616599873.674	1.608	2694.488
1616599903.678	1.610	2687.818
1616599933.671	1.608	2680.830
1616599963.677	1.613	2674.648
1616599993.677	1.610	2668.700
1616600023.676	1.607	2662.250
1616600053.670	1.606	2655.947
1616600083.679	1.610	2649.738
1616600113.674	1.610	2643.752
1616600143.682	1.616	2637.970
1616600173.673	1.609	2631.170
1616600203.678	1.610	2625.075
1616600233.674	1.609	2618.558
1616600263.674	1.608	2612.205
1616600293.673	1.607	2605.672
1616600323.677	1.612	2599.692
1616600353.674	1.607	2593.100
1616600383.672	1.609	2586.468
1616600413.674	1.612	2579.530
1616600443.680	1.613	2573.480
1616600473.675	1.608	2567.078
1616600503.675	1.607	2560.970
1616600533.675	1.610	2554.657
1616600563.671	1.608	2548.147
1616600593.676	1.611	2542.050
1616600623.673	1.609	2535.448
1616600653.675	1.613	2528.503
1616600683.673	1.609	2522.438
1616600713.678	1.609	2516.117
1616600743.677	1.612	2510.118
1616600773.671	1.609	2503.548
1616600803.674	1.611	2497.120
1616600833.677	1.612	2491.342
1616600863.676	1.610	2484.580
1616600893.678	1.610	2478.750
1616600923.677	1.612	2472.180
1616600953.678	1.610	2465.328
1616600983.675	1.610	2458.697
1616601013.673	1.611	2452.470
1616601043.674	1.609	2446.152
1616601073.675	1.609	2439.672
1616601103.677	1.611	2432.962
1616601133.673	1.610	2427.377
1616601163.708	1.610	2420.923
1616601193.678	1.610	2413.915
1616601223.675	1.611	2407.810
1616601253.677	1.612	2400.880
1616601283.670	1.606	2394.540
1616601313.676	1.613	2388.282
1616601343.671	1.609	2382.008
1616601373.677	1.612	2375.405
1616601403.676	1.609	2368.683
1616601433.673	1.609	2362.417
1616601463.677	1.613	2355.733
1616601493.675	1.609	2349.632
1616601523.671	1.608	2343.203
1616601553.675	1.609	2336.618
1616601583.677	1.612	2330.263
1616601613.673	1.609	2323.395
1616601643.675	1.609	2317.112
1616601673.675	1.609	2310.430
1616601703.677	1.611	2303.788
1616601733.671	1.609	2297.245
1616601763.678	1.612	2291.608
1616601793.671	1.609	2285.115
1616601823.675	1.611	2278.617
1616601853.677	1.612	2271.797
1616601883.677	1.610	2264.872
1616601913.678	1.612	2258.917
1616601943.676	1.610	2252.567
1616601973.675	1.609	2246.037
1616602003.675	1.610	2239.847
1616602033.674	1.608	2233.765
1616602063.675	1.612	2227.423
1616602093.673	1.608	2220.973
1616602123.673	1.608	2214.793
1616602153.673	1.612	2208.413
1616602183.675	1.609	2201.490
1616602213.677	1.613	2194.967
1616602243.676	1.609	2188.547
1616602273.677	1.612	2182.505
1616602303.674	1.609	2176.233
1616602333.674	1.609	2169.045
1616602363.675	1.612	2162.455
1616602393.677	1.609	2156.882
1616602423.674	1.612	2150.608
1616602453.674	1.610	2144.220
1616602483.672	1.608	2137.332
1616602513.672	1.607	2130.572
1616602543.675	1.610	2124.145
1616602573.677	1.610	2117.773
1616602603.674	1.609	2111.697
1616602633.676	1.610	2104.982
1616602663.674	1.609	2098.430
1616602693.674	1.609	2091.618
1616602723.675	1.612	2084.773
1616602753.674	1.608	2078.415
1616602783.675	1.612	2072.777
1616602813.670	1.606	2065.650
1616602843.677	1.609	2059.415
1616602873.678	1.609	2052.567
1616602903.676	1.612	2046.145
1616602933.671	1.607	2040.160
1616602963.678	1.612	2033.590
1616602993.674	1.608	2027.183
1616603023.677	1.612	2020.670
1616603053.672	1.609	2014.218
1616603083.675	1.613	2008.005
1616603113.677	1.607	2001.377
1616603143.678	1.611	1994.610
